70BCSV 	
// AQ6370B OPTICAL SPECTRUM ANALYZER //                 
25
"CTRWL",1300.000000
"SPAN", 800.000000
"START WL", 900.000000
"STOP WL",1700.000000
"WLFREQ", 0
"REFL",-17.2
"LSCL",10.0
"RESLN",0.500
"AVG",   1
"SMPLAUTO",      1
"SMPL",       8001
"SMPLINTVL",0.1000
"HIGH1"
"MEAS"
"LSUNT",0
"NMSKH","OFF"
"RESCOR",0
"RESPARM", 9740
"FREQPARM", 9740






"[TRACE DATA]"
 900.0000, -71.083
 900.1000, -74.497
 900.2000, -69.293
 900.3000, -71.484
 900.4000, -75.188
 900.5000, -73.279
 900.6000, -75.368
 900.7000,-210.000
 900.8000, -73.886
 900.9000, -70.789
 901.0000, -73.779
 901.1000, -72.563
 901.2000, -73.307
 901.3000, -73.899
 901.4000, -76.833
 901.5000, -73.692
 901.6000, -74.858
 901.7000, -72.008
 901.8000, -73.591
 901.9000, -73.126
 902.0000, -75.590
 902.1000, -80.079
 902.2000, -74.446
 902.3000, -71.016
 902.4000, -74.991
 902.5000, -75.713
 902.6000, -73.193
 902.7000, -73.377
 902.8000, -75.107
 902.9000, -71.873
 903.0000, -72.833
 903.1000, -72.680
 903.2000, -79.694
 903.3000, -73.666
 903.4000, -76.917
 903.5000, -72.329
 903.6000, -86.798
 903.7000, -74.148
 903.8000, -71.099
 903.9000, -71.723
 904.0000, -71.620
 904.1000, -75.488
 904.2000, -74.275
 904.3000, -71.964
 904.4000,-210.000
 904.5000,-210.000
 904.6000, -69.619
 904.7000, -72.391
 904.8000, -74.718
 904.9000,-210.000
 905.0000, -73.322
 905.1000, -68.899
 905.2000, -74.138
 905.3000, -76.228
 905.4000, -75.206
 905.5000, -74.371
 905.6000, -76.584
 905.7000, -79.361
 905.8000, -71.885
 905.9000, -73.660
 906.0000, -78.477
 906.1000, -73.653
 906.2000, -71.553
 906.3000, -72.860
 906.4000, -73.729
 906.5000, -73.856
 906.6000, -72.436
 906.7000, -75.602
 906.8000, -76.006
 906.9000, -77.278
 907.0000, -74.199
 907.1000, -74.200
 907.2000, -77.423
 907.3000, -77.344
 907.4000, -73.568
 907.5000, -74.998
 907.6000, -74.518
 907.7000, -72.029
 907.8000, -77.183
 907.9000, -83.119
 908.0000, -74.215
 908.1000, -75.181
 908.2000, -75.872
 908.3000, -71.354
 908.4000, -81.589
 908.5000, -79.451
 908.6000, -76.687
 908.7000, -72.490
 908.8000, -74.042
 908.9000, -80.196
 909.0000, -74.234
 909.1000, -75.681
 909.2000, -76.556
 909.3000, -73.506
 909.4000, -75.402
 909.5000, -72.719
 909.6000, -74.234
 909.7000, -74.054
 909.8000, -75.471
 909.9000, -76.401
 910.0000, -76.368
 910.1000, -75.968
 910.2000, -75.152
 910.3000, -72.996
 910.4000, -74.396
 910.5000, -72.140
 910.6000, -73.477
 910.7000,-210.000
 910.8000, -74.862
 910.9000, -75.053
 911.0000, -73.118
 911.1000, -75.845
 911.2000, -72.363
 911.3000, -75.596
 911.4000, -72.076
 911.5000, -76.541
 911.6000, -73.694
 911.7000,-210.000
 911.8000, -79.100
 911.9000, -80.814
 912.0000, -80.121
 912.1000, -74.746
 912.2000, -75.548
 912.3000, -70.402
 912.4000, -78.369
 912.5000, -72.673
 912.6000, -77.113
 912.7000,-210.000
 912.8000, -74.249
 912.9000, -77.512
 913.0000, -73.509
 913.1000,-210.000
 913.2000, -70.938
 913.3000,-210.000
 913.4000,-210.000
 913.5000, -74.964
 913.6000, -74.750
 913.7000, -81.063
 913.8000, -73.943
 913.9000, -71.846
 914.0000,-210.000
 914.1000,-210.000
 914.2000, -77.927
 914.3000, -72.323
 914.4000, -71.486
 914.5000, -75.254
 914.6000, -75.463
 914.7000,-210.000
 914.8000, -73.989
 914.9000, -73.803
 915.0000, -79.164
 915.1000, -89.892
 915.2000,-210.000
 915.3000, -71.191
 915.4000, -71.749
 915.5000, -76.040
 915.6000, -77.057
 915.7000, -74.841
 915.8000, -77.746
 915.9000, -77.145
 916.0000, -76.876
 916.1000, -87.041
 916.2000, -72.310
 916.3000,-210.000
 916.4000,-210.000
 916.5000, -77.278
 916.6000, -75.154
 916.7000, -77.229
 916.8000, -75.541
 916.9000, -74.353
 917.0000, -75.865
 917.1000, -75.351
 917.2000, -75.492
 917.3000, -75.527
 917.4000, -74.746
 917.5000, -77.275
 917.6000, -77.078
 917.7000, -77.372
 917.8000, -80.732
 917.9000, -75.121
 918.0000, -75.113
 918.1000,-210.000
 918.2000, -71.514
 918.3000, -81.061
 918.4000, -71.707
 918.5000, -78.362
 918.6000, -79.339
 918.7000, -74.147
 918.8000, -75.494
 918.9000,-210.000
 919.0000, -75.945
 919.1000, -77.551
 919.2000, -75.906
 919.3000, -74.091
 919.4000,-210.000
 919.5000, -79.466
 919.6000, -75.722
 919.7000, -76.833
 919.8000, -76.911
 919.9000, -76.373
 920.0000, -72.936
 920.1000,-210.000
 920.2000, -84.193
 920.3000, -73.690
 920.4000,-210.000
 920.5000, -76.283
 920.6000, -84.149
 920.7000, -75.242
 920.8000, -77.618
 920.9000, -77.317
 921.0000, -85.696
 921.1000, -74.903
 921.2000, -77.569
 921.3000, -79.287
 921.4000, -75.080
 921.5000, -75.001
 921.6000, -90.362
 921.7000, -74.341
 921.8000, -76.046
 921.9000, -77.067
 922.0000, -85.681
 922.1000, -77.145
 922.2000, -76.613
 922.3000, -76.814
 922.4000, -78.831
 922.5000, -76.526
 922.6000, -75.661
 922.7000, -74.203
 922.8000, -79.327
 922.9000, -75.985
 923.0000, -76.142
 923.1000, -78.269
 923.2000, -82.019
 923.3000, -75.609
 923.4000, -78.648
 923.5000, -76.483
 923.6000, -78.417
 923.7000, -76.985
 923.8000, -76.101
 923.9000, -77.851
 924.0000, -79.166
 924.1000, -76.672
 924.2000, -78.015
 924.3000, -77.238
 924.4000, -77.948
 924.5000, -74.577
 924.6000, -76.446
 924.7000, -79.587
 924.8000, -80.734
 924.9000, -74.130
 925.0000, -88.218
 925.1000, -78.791
 925.2000, -76.422
 925.3000, -84.186
 925.4000, -78.775
 925.5000, -76.289
 925.6000, -75.661
 925.7000, -75.255
 925.8000, -81.277
 925.9000, -79.439
 926.0000, -78.362
 926.1000, -76.667
 926.2000, -75.430
 926.3000, -75.045
 926.4000, -76.687
 926.5000, -79.673
 926.6000, -80.826
 926.7000, -76.967
 926.8000, -78.835
 926.9000, -79.970
 927.0000, -76.428
 927.1000, -74.755
 927.2000, -77.212
 927.3000, -79.882
 927.4000, -76.923
 927.5000, -76.317
 927.6000, -75.719
 927.7000, -78.563
 927.8000, -81.121
 927.9000, -78.060
 928.0000, -76.021
 928.1000, -77.525
 928.2000, -76.846
 928.3000, -77.384
 928.4000, -79.392
 928.5000, -81.328
 928.6000, -77.139
 928.7000, -83.024
 928.8000, -77.342
 928.9000, -77.133
 929.0000, -79.925
 929.1000, -77.921
 929.2000, -78.206
 929.3000, -76.218
 929.4000, -81.054
 929.5000, -87.065
 929.6000, -77.807
 929.7000, -79.615
 929.8000, -76.224
 929.9000, -80.952
 930.0000, -77.639
 930.1000, -80.593
 930.2000, -78.286
 930.3000, -77.179
 930.4000, -78.823
 930.5000, -81.777
 930.6000, -76.629
 930.7000, -78.065
 930.8000, -78.178
 930.9000, -77.199
 931.0000, -79.105
 931.1000, -78.344
 931.2000, -78.293
 931.3000, -78.168
 931.4000, -79.585
 931.5000, -76.125
 931.6000, -76.790
 931.7000, -81.354
 931.8000, -80.705
 931.9000, -79.744
 932.0000, -76.856
 932.1000, -77.138
 932.2000, -79.906
 932.3000, -78.381
 932.4000, -74.414
 932.5000, -78.327
 932.6000, -78.668
 932.7000, -97.580
 932.8000,-210.000
 932.9000, -77.238
 933.0000, -79.684
 933.1000, -77.024
 933.2000, -74.876
 933.3000, -75.470
 933.4000, -77.455
 933.5000, -90.515
 933.6000, -77.125
 933.7000, -82.860
 933.8000, -75.745
 933.9000, -75.261
 934.0000,-210.000
 934.1000, -85.231
 934.2000, -81.605
 934.3000, -75.200
 934.4000, -85.984
 934.5000, -79.642
 934.6000, -75.386
 934.7000, -81.409
 934.8000, -77.081
 934.9000, -77.026
 935.0000, -77.377
 935.1000, -78.538
 935.2000, -80.116
 935.3000, -80.452
 935.4000, -86.945
 935.5000, -84.149
 935.6000, -83.433
 935.7000, -73.954
 935.8000, -78.623
 935.9000, -80.298
 936.0000, -78.617
 936.1000, -77.172
 936.2000, -76.937
 936.3000,-210.000
 936.4000,-210.000
 936.5000, -78.549
 936.6000, -77.095
 936.7000, -98.458
 936.8000, -76.093
 936.9000, -76.515
 937.0000, -78.387
 937.1000, -80.163
 937.2000, -86.960
 937.3000, -78.546
 937.4000, -77.016
 937.5000,-210.000
 937.6000,-210.000
 937.7000, -80.464
 937.8000, -74.727
 937.9000, -75.192
 938.0000, -77.412
 938.1000, -82.938
 938.2000, -89.990
 938.3000, -81.463
 938.4000, -74.690
 938.5000, -78.180
 938.6000, -80.622
 938.7000, -76.280
 938.8000, -73.904
 938.9000,-210.000
 939.0000,-210.000
 939.1000, -78.147
 939.2000, -76.166
 939.3000, -79.969
 939.4000, -79.379
 939.5000,-210.000
 939.6000, -93.010
 939.7000, -75.116
 939.8000, -79.100
 939.9000, -78.643
 940.0000, -83.270
 940.1000, -77.201
 940.2000,-210.000
 940.3000, -79.478
 940.4000, -78.745
 940.5000,-210.000
 940.6000, -79.341
 940.7000, -79.255
 940.8000, -84.247
 940.9000, -80.737
 941.0000, -82.015
 941.1000, -77.748
 941.2000, -85.505
 941.3000, -77.955
 941.4000, -77.987
 941.5000, -76.534
 941.6000, -76.776
 941.7000, -76.741
 941.8000,-210.000
 941.9000, -78.654
 942.0000, -82.179
 942.1000, -80.779
 942.2000, -76.399
 942.3000, -78.693
 942.4000, -76.711
 942.5000, -79.941
 942.6000, -78.826
 942.7000, -78.701
 942.8000, -78.090
 942.9000, -81.365
 943.0000, -77.927
 943.1000, -76.473
 943.2000,-210.000
 943.3000, -78.358
 943.4000, -78.035
 943.5000, -78.990
 943.6000,-210.000
 943.7000, -76.838
 943.8000, -77.744
 943.9000, -77.255
 944.0000, -78.573
 944.1000, -80.111
 944.2000, -78.239
 944.3000, -77.989
 944.4000, -77.705
 944.5000, -77.991
 944.6000, -80.093
 944.7000, -81.145
 944.8000, -81.659
 944.9000, -77.347
 945.0000, -79.877
 945.1000, -77.953
 945.2000, -77.574
 945.3000, -79.110
 945.4000, -86.759
 945.5000,-210.000
 945.6000, -75.432
 945.7000, -79.026
 945.8000, -80.683
 945.9000, -76.593
 946.0000, -78.474
 946.1000, -77.226
 946.2000, -76.919
 946.3000, -78.810
 946.4000, -77.352
 946.5000, -77.940
 946.6000, -76.639
 946.7000, -77.096
 946.8000, -84.924
 946.9000, -80.743
 947.0000, -78.679
 947.1000, -81.011
 947.2000, -78.354
 947.3000, -77.413
 947.4000, -81.119
 947.5000,-105.336
 947.6000, -78.662
 947.7000, -79.895
 947.8000, -78.594
 947.9000, -78.709
 948.0000, -77.434
 948.1000, -83.298
 948.2000, -82.917
 948.3000, -79.159
 948.4000, -77.578
 948.5000, -77.146
 948.6000, -76.689
 948.7000, -80.702
 948.8000,-210.000
 948.9000, -84.862
 949.0000, -78.405
 949.1000, -78.617
 949.2000,-210.000
 949.3000, -92.184
 949.4000, -79.315
 949.5000, -80.624
 949.6000, -79.713
 949.7000, -80.861
 949.8000, -84.139
 949.9000, -77.580
 950.0000, -79.650
 950.1000, -82.581
 950.2000, -78.414
 950.3000, -85.506
 950.4000, -79.367
 950.5000, -85.792
 950.6000, -78.138
 950.7000, -80.229
 950.8000, -82.723
 950.9000, -79.529
 951.0000, -78.520
 951.1000, -81.272
 951.2000, -81.666
 951.3000, -82.588
 951.4000, -78.143
 951.5000, -79.115
 951.6000, -86.966
 951.7000, -79.704
 951.8000, -78.872
 951.9000, -85.285
 952.0000, -79.053
 952.1000, -78.596
 952.2000, -84.366
 952.3000, -76.974
 952.4000, -79.734
 952.5000, -83.452
 952.6000, -78.988
 952.7000, -81.222
 952.8000, -83.454
 952.9000, -80.088
 953.0000,-210.000
 953.1000, -82.379
 953.2000, -77.575
 953.3000, -84.410
 953.4000, -78.171
 953.5000, -79.194
 953.6000, -77.578
 953.7000, -79.111
 953.8000, -80.978
 953.9000, -80.826
 954.0000, -78.960
 954.1000, -81.169
 954.2000, -82.885
 954.3000, -80.079
 954.4000, -79.955
 954.5000, -77.687
 954.6000, -79.871
 954.7000, -82.460
 954.8000, -81.589
 954.9000, -79.493
 955.0000, -82.294
 955.1000, -79.063
 955.2000, -82.016
 955.3000, -80.831
 955.4000, -81.976
 955.5000, -82.497
 955.6000, -78.790
 955.7000, -80.267
 955.8000, -82.481
 955.9000, -77.462
 956.0000, -80.452
 956.1000, -92.101
 956.2000, -81.342
 956.3000, -81.727
 956.4000, -80.206
 956.5000, -77.832
 956.6000, -79.897
 956.7000, -75.769
 956.8000,-210.000
 956.9000, -85.566
 957.0000, -78.465
 957.1000, -87.002
 957.2000, -83.599
 957.3000, -79.153
 957.4000, -82.015
 957.5000, -81.117
 957.6000, -82.818
 957.7000, -80.083
 957.8000, -77.106
 957.9000, -83.174
 958.0000, -78.201
 958.1000, -80.083
 958.2000, -84.175
 958.3000, -80.454
 958.4000, -96.606
 958.5000, -78.523
 958.6000, -89.418
 958.7000, -77.156
 958.8000, -80.526
 958.9000, -78.759
 959.0000, -79.644
 959.1000, -82.985
 959.2000, -81.211
 959.3000,-210.000
 959.4000, -81.297
 959.5000, -80.003
 959.6000, -78.714
 959.7000, -78.611
 959.8000, -80.334
 959.9000, -83.720
 960.0000, -79.273
 960.1000, -79.602
 960.2000, -80.148
 960.3000, -77.562
 960.4000, -77.682
 960.5000, -79.083
 960.6000,-210.000
 960.7000, -81.536
 960.8000, -82.539
 960.9000, -81.258
 961.0000, -78.275
 961.1000, -80.314
 961.2000, -80.160
 961.3000, -82.321
 961.4000, -77.672
 961.5000, -83.574
 961.6000, -80.032
 961.7000, -82.736
 961.8000, -80.694
 961.9000, -78.581
 962.0000, -81.149
 962.1000, -81.006
 962.2000,-210.000
 962.3000, -79.482
 962.4000, -79.147
 962.5000, -78.485
 962.6000, -80.655
 962.7000, -79.844
 962.8000, -79.235
 962.9000, -83.443
 963.0000, -79.661
 963.1000, -79.024
 963.2000, -79.880
 963.3000, -83.307
 963.4000, -79.231
 963.5000, -82.128
 963.6000, -78.239
 963.7000, -80.464
 963.8000, -84.653
 963.9000, -82.946
 964.0000, -83.002
 964.1000, -82.310
 964.2000, -78.886
 964.3000, -83.438
 964.4000, -77.776
 964.5000, -79.899
 964.6000, -79.963
 964.7000, -82.274
 964.8000, -86.303
 964.9000, -80.322
 965.0000, -79.852
 965.1000, -78.097
 965.2000, -83.198
 965.3000, -77.357
 965.4000, -79.273
 965.5000,-210.000
 965.6000, -78.757
 965.7000, -83.325
 965.8000, -80.409
 965.9000, -82.513
 966.0000, -80.877
 966.1000, -76.542
 966.2000, -82.809
 966.3000, -81.329
 966.4000, -79.908
 966.5000, -81.316
 966.6000, -80.731
 966.7000, -77.298
 966.8000,-210.000
 966.9000, -83.312
 967.0000, -81.094
 967.1000, -81.637
 967.2000, -82.074
 967.3000, -82.269
 967.4000, -87.846
 967.5000, -77.437
 967.6000, -78.769
 967.7000, -78.714
 967.8000, -80.012
 967.9000, -86.070
 968.0000, -87.614
 968.1000, -79.866
 968.2000, -79.484
 968.3000, -80.165
 968.4000, -80.324
 968.5000, -78.576
 968.6000, -77.575
 968.7000, -81.879
 968.8000, -81.118
 968.9000, -80.494
 969.0000, -80.869
 969.1000, -78.919
 969.2000, -83.854
 969.3000, -83.761
 969.4000, -82.856
 969.5000, -78.083
 969.6000, -81.128
 969.7000, -82.848
 969.8000, -78.576
 969.9000, -77.361
 970.0000, -81.383
 970.1000, -81.745
 970.2000, -81.531
 970.3000, -80.285
 970.4000, -78.947
 970.5000, -81.914
 970.6000, -85.068
 970.7000, -82.444
 970.8000, -80.105
 970.9000, -81.331
 971.0000, -83.895
 971.1000, -77.575
 971.2000, -78.721
 971.3000, -80.581
 971.4000, -78.812
 971.5000, -83.437
 971.6000, -80.860
 971.7000, -78.870
 971.8000, -88.076
 971.9000, -79.043
 972.0000, -83.669
 972.1000, -80.044
 972.2000, -82.759
 972.3000, -83.388
 972.4000, -79.306
 972.5000, -79.821
 972.6000, -78.209
 972.7000, -80.022
 972.8000, -81.246
 972.9000, -80.362
 973.0000,-210.000
 973.1000, -79.140
 973.2000, -79.377
 973.3000, -78.795
 973.4000, -79.013
 973.5000, -84.960
 973.6000, -86.903
 973.7000, -82.380
 973.8000, -79.778
 973.9000, -80.141
 974.0000, -83.441
 974.1000, -79.499
 974.2000, -89.482
 974.3000, -80.484
 974.4000, -83.879
 974.5000, -80.147
 974.6000, -81.376
 974.7000, -78.356
 974.8000, -80.239
 974.9000, -79.838
 975.0000, -79.215
 975.1000, -81.808
 975.2000, -78.690
 975.3000, -81.355
 975.4000, -81.659
 975.5000, -85.900
 975.6000, -81.385
 975.7000, -80.178
 975.8000, -79.745
 975.9000, -81.957
 976.0000, -80.812
 976.1000, -81.289
 976.2000, -80.834
 976.3000, -77.667
 976.4000, -77.434
 976.5000,-210.000
 976.6000,-210.000
 976.7000, -80.693
 976.8000, -78.109
 976.9000, -80.152
 977.0000, -82.621
 977.1000, -80.563
 977.2000, -80.785
 977.3000, -79.692
 977.4000, -79.414
 977.5000, -88.644
 977.6000, -77.259
 977.7000, -80.461
 977.8000, -81.506
 977.9000, -80.593
 978.0000,-210.000
 978.1000, -78.527
 978.2000, -81.350
 978.3000, -87.844
 978.4000, -78.005
 978.5000, -75.689
 978.6000,-210.000
 978.7000,-210.000
 978.8000, -80.407
 978.9000, -80.839
 979.0000, -80.785
 979.1000, -79.045
 979.2000, -77.193
 979.3000, -82.121
 979.4000,-210.000
 979.5000, -80.152
 979.6000, -78.035
 979.7000, -83.699
 979.8000, -81.229
 979.9000,-210.000
 980.0000, -76.958
 980.1000, -80.846
 980.2000, -85.391
 980.3000,-210.000
 980.4000, -83.166
 980.5000, -79.046
 980.6000, -79.461
 980.7000, -80.581
 980.8000, -81.492
 980.9000, -80.333
 981.0000, -87.082
 981.1000, -77.599
 981.2000,-210.000
 981.3000, -80.249
 981.4000, -79.043
 981.5000, -80.631
 981.6000, -80.524
 981.7000, -81.810
 981.8000, -84.442
 981.9000, -79.599
 982.0000, -80.290
 982.1000, -80.200
 982.2000, -88.689
 982.3000, -79.717
 982.4000, -78.959
 982.5000, -80.076
 982.6000, -84.353
 982.7000, -81.375
 982.8000, -81.088
 982.9000, -80.059
 983.0000, -80.536
 983.1000, -80.072
 983.2000, -79.245
 983.3000, -80.819
 983.4000, -82.727
 983.5000, -82.640
 983.6000, -77.696
 983.7000, -86.295
 983.8000, -77.713
 983.9000, -79.219
 984.0000, -90.731
 984.1000, -83.404
 984.2000, -80.763
 984.3000, -85.184
 984.4000, -79.193
 984.5000, -85.345
 984.6000, -83.493
 984.7000, -82.493
 984.8000, -81.048
 984.9000, -84.341
 985.0000, -83.050
 985.1000, -79.792
 985.2000, -78.091
 985.3000, -80.001
 985.4000, -80.483
 985.5000, -79.118
 985.6000, -81.677
 985.7000, -82.681
 985.8000, -80.030
 985.9000, -82.152
 986.0000, -83.346
 986.1000, -85.501
 986.2000, -80.249
 986.3000, -80.509
 986.4000, -82.321
 986.5000, -81.851
 986.6000, -81.720
 986.7000, -83.847
 986.8000, -79.991
 986.9000, -83.237
 987.0000, -81.427
 987.1000, -81.764
 987.2000, -85.157
 987.3000, -79.412
 987.4000, -90.307
 987.5000, -81.038
 987.6000, -81.515
 987.7000, -80.130
 987.8000, -81.418
 987.9000, -79.595
 988.0000,-210.000
 988.1000, -80.889
 988.2000, -88.433
 988.3000, -81.766
 988.4000, -82.538
 988.5000, -82.297
 988.6000, -81.775
 988.7000, -81.420
 988.8000, -81.496
 988.9000, -80.903
 989.0000, -80.254
 989.1000, -83.412
 989.2000, -81.613
 989.3000, -80.722
 989.4000, -87.843
 989.5000, -79.475
 989.6000, -83.945
 989.7000, -82.649
 989.8000, -79.447
 989.9000, -79.735
 990.0000, -80.039
 990.1000, -83.228
 990.2000, -82.055
 990.3000, -78.813
 990.4000, -85.823
 990.5000, -83.744
 990.6000, -80.295
 990.7000, -85.381
 990.8000, -87.933
 990.9000, -81.942
 991.0000, -79.860
 991.1000, -84.604
 991.2000, -81.339
 991.3000, -80.102
 991.4000, -81.941
 991.5000, -83.151
 991.6000, -78.998
 991.7000, -80.548
 991.8000, -83.157
 991.9000, -82.253
 992.0000, -84.248
 992.1000, -80.782
 992.2000, -88.508
 992.3000, -82.541
 992.4000, -81.110
 992.5000, -80.958
 992.6000, -85.645
 992.7000, -79.966
 992.8000, -84.808
 992.9000, -79.779
 993.0000, -83.278
 993.1000, -82.193
 993.2000, -80.094
 993.3000, -80.768
 993.4000, -83.309
 993.5000, -80.624
 993.6000, -90.374
 993.7000, -82.430
 993.8000, -79.668
 993.9000, -80.777
 994.0000, -82.438
 994.1000, -81.958
 994.2000, -83.144
 994.3000, -81.623
 994.4000, -80.893
 994.5000, -79.951
 994.6000, -80.407
 994.7000, -81.773
 994.8000, -80.366
 994.9000, -82.223
 995.0000, -80.675
 995.1000, -78.616
 995.2000, -80.259
 995.3000, -83.166
 995.4000, -81.601
 995.5000,-210.000
 995.6000, -79.622
 995.7000, -80.650
 995.8000, -79.534
 995.9000, -81.444
 996.0000, -84.700
 996.1000, -81.669
 996.2000, -78.968
 996.3000, -81.460
 996.4000, -83.231
 996.5000, -82.462
 996.6000, -81.682
 996.7000, -80.581
 996.8000, -81.075
 996.9000, -80.914
 997.0000, -80.966
 997.1000, -83.266
 997.2000, -79.848
 997.3000, -82.734
 997.4000, -81.583
 997.5000, -82.987
 997.6000, -80.860
 997.7000, -82.283
 997.8000, -79.113
 997.9000, -83.840
 998.0000, -82.990
 998.1000, -80.766
 998.2000, -79.989
 998.3000, -80.878
 998.4000, -78.763
 998.5000, -81.888
 998.6000, -81.238
 998.7000, -88.690
 998.8000, -79.236
 998.9000, -83.897
 999.0000, -82.111
 999.1000, -81.773
 999.2000, -82.501
 999.3000, -78.306
 999.4000,-210.000
 999.5000, -77.380
 999.6000,-210.000
 999.7000, -79.422
 999.8000,-210.000
 999.9000, -83.241
1000.0000, -80.007
1000.1000, -78.996
1000.2000, -86.452
1000.3000, -81.300
1000.4000, -83.802
1000.5000, -83.150
1000.6000, -80.829
1000.7000, -87.961
1000.8000, -83.099
1000.9000, -80.198
1001.0000, -81.351
1001.1000, -82.863
1001.2000, -85.590
1001.3000, -83.060
1001.4000, -81.575
1001.5000, -79.993
1001.6000, -82.582
1001.7000, -83.690
1001.8000, -79.602
1001.9000, -80.924
1002.0000, -79.576
1002.1000, -79.758
1002.2000, -86.069
1002.3000, -91.646
1002.4000, -82.535
1002.5000, -82.515
1002.6000, -80.960
1002.7000,-210.000
1002.8000, -82.405
1002.9000, -87.369
1003.0000, -84.404
1003.1000, -78.726
