70BCSV 	
// AQ6370B OPTICAL SPECTRUM ANALYZER //                 
25
"CTRWL",1300.000000
"SPAN", 800.000000
"START WL", 900.000000
"STOP WL",1700.000000
"WLFREQ", 0
"REFL",-17.2
"LSCL",10.0
"RESLN",0.500
"AVG",   1
"SMPLAUTO",      1
"SMPL",       8001
"SMPLINTVL",0.1000
"HIGH1"
"MEAS"
"LSUNT",0
"NMSKH","OFF"
"RESCOR",0
"RESPARM", 9740
"FREQPARM", 9740






"[TRACE DATA]"
 900.0000,-210.000
 900.1000,-210.000
 900.2000, -72.928
 900.3000, -74.611
 900.4000,-210.000
 900.5000, -80.526
 900.6000,-210.000
 900.7000, -74.339
 900.8000, -77.580
 900.9000,-210.000
 901.0000, -77.742
 901.1000, -71.879
 901.2000,-210.000
 901.3000,-210.000
 901.4000,-210.000
 901.5000, -80.686
 901.6000, -73.139
 901.7000,-210.000
 901.8000,-210.000
 901.9000, -75.748
 902.0000,-210.000
 902.1000,-210.000
 902.2000, -73.079
 902.3000,-210.000
 902.4000,-210.000
 902.5000, -80.221
 902.6000,-210.000
 902.7000, -74.305
 902.8000,-210.000
 902.9000,-210.000
 903.0000, -75.868
 903.1000, -82.959
 903.2000, -78.473
 903.3000, -73.513
 903.4000, -78.542
 903.5000, -78.535
 903.6000,-210.000
 903.7000,-210.000
 903.8000, -75.811
 903.9000, -81.832
 904.0000, -75.925
 904.1000,-210.000
 904.2000,-210.000
 904.3000, -76.363
 904.4000,-210.000
 904.5000,-210.000
 904.6000,-210.000
 904.7000, -79.698
 904.8000, -73.480
 904.9000, -73.519
 905.0000,-210.000
 905.1000, -78.649
 905.2000,-210.000
 905.3000, -78.448
 905.4000, -77.621
 905.5000,-210.000
 905.6000, -73.554
 905.7000,-210.000
 905.8000,-210.000
 905.9000, -83.715
 906.0000, -73.485
 906.1000, -73.364
 906.2000,-210.000
 906.3000,-210.000
 906.4000,-210.000
 906.5000,-210.000
 906.6000,-210.000
 906.7000, -76.240
 906.8000, -73.582
 906.9000,-210.000
 907.0000, -81.663
 907.1000, -78.772
 907.2000,-210.000
 907.3000,-210.000
 907.4000,-210.000
 907.5000, -74.852
 907.6000, -74.744
 907.7000, -77.657
 907.8000,-210.000
 907.9000,-210.000
 908.0000, -72.486
 908.1000,-210.000
 908.2000,-210.000
 908.3000, -74.797
 908.4000,-210.000
 908.5000,-210.000
 908.6000,-210.000
 908.7000, -76.747
 908.8000,-210.000
 908.9000, -71.815
 909.0000, -87.833
 909.1000, -73.804
 909.2000,-210.000
 909.3000,-210.000
 909.4000, -76.035
 909.5000, -78.535
 909.6000,-210.000
 909.7000,-210.000
 909.8000, -85.064
 909.9000,-210.000
 910.0000, -78.179
 910.1000, -78.301
 910.2000,-210.000
 910.3000,-210.000
 910.4000, -87.570
 910.5000, -83.432
 910.6000,-210.000
 910.7000, -74.732
 910.8000,-210.000
 910.9000, -87.376
 911.0000, -79.711
 911.1000, -75.000
 911.2000, -80.218
 911.3000,-210.000
 911.4000,-210.000
 911.5000, -80.497
 911.6000, -85.677
 911.7000, -86.378
 911.8000, -89.216
 911.9000, -77.822
 912.0000,-210.000
 912.1000,-210.000
 912.2000, -77.429
 912.3000, -82.845
 912.4000, -82.009
 912.5000, -85.925
 912.6000, -81.746
 912.7000, -76.835
 912.8000,-210.000
 912.9000, -79.733
 913.0000,-210.000
 913.1000, -80.030
 913.2000, -81.918
 913.3000, -83.136
 913.4000, -83.073
 913.5000,-210.000
 913.6000, -82.317
 913.7000, -77.750
 913.8000, -94.167
 913.9000,-210.000
 914.0000,-210.000
 914.1000, -78.829
 914.2000, -83.488
 914.3000,-210.000
 914.4000, -74.760
 914.5000,-210.000
 914.6000,-210.000
 914.7000, -76.188
 914.8000,-210.000
 914.9000, -77.839
 915.0000,-210.000
 915.1000, -78.520
 915.2000, -81.458
 915.3000,-210.000
 915.4000,-210.000
 915.5000, -76.216
 915.6000,-210.000
 915.7000, -86.291
 915.8000, -75.421
 915.9000,-210.000
 916.0000, -88.118
 916.1000, -88.266
 916.2000,-210.000
 916.3000, -83.979
 916.4000, -81.237
 916.5000, -77.775
 916.6000, -79.685
 916.7000, -84.468
 916.8000, -82.821
 916.9000, -83.085
 917.0000, -76.465
 917.1000,-210.000
 917.2000,-210.000
 917.3000, -79.951
 917.4000,-210.000
 917.5000,-210.000
 917.6000,-210.000
 917.7000, -90.839
 917.8000, -81.010
 917.9000, -85.049
 918.0000, -74.150
 918.1000, -89.352
 918.2000, -79.392
 918.3000, -76.776
 918.4000, -79.935
 918.5000, -87.056
 918.6000,-210.000
 918.7000, -76.973
 918.8000, -79.019
 918.9000, -76.174
 919.0000,-210.000
 919.1000,-210.000
 919.2000, -77.226
 919.3000, -84.092
 919.4000, -78.451
 919.5000,-210.000
 919.6000, -75.951
 919.7000, -80.261
 919.8000,-210.000
 919.9000, -85.567
 920.0000,-210.000
 920.1000, -82.212
 920.2000,-210.000
 920.3000,-210.000
 920.4000,-210.000
 920.5000, -77.800
 920.6000, -79.715
 920.7000, -77.155
 920.8000,-210.000
 920.9000, -79.599
 921.0000,-210.000
 921.1000, -79.993
 921.2000, -78.146
 921.3000, -76.640
 921.4000, -93.926
 921.5000, -82.338
 921.6000, -76.835
 921.7000, -82.380
 921.8000, -76.866
 921.9000,-210.000
 922.0000,-210.000
 922.1000, -86.845
 922.2000,-210.000
 922.3000, -80.304
 922.4000,-210.000
 922.5000, -79.387
 922.6000,-210.000
 922.7000, -92.536
 922.8000, -80.798
 922.9000, -79.593
 923.0000, -80.587
 923.1000,-210.000
 923.2000,-210.000
 923.3000,-210.000
 923.4000, -77.409
 923.5000, -87.319
 923.6000, -79.309
 923.7000, -84.296
 923.8000,-210.000
 923.9000, -82.425
 924.0000, -77.980
 924.1000,-210.000
 924.2000,-210.000
 924.3000, -78.810
 924.4000, -85.816
 924.5000,-210.000
 924.6000, -80.377
 924.7000,-210.000
 924.8000,-210.000
 924.9000, -83.099
 925.0000, -77.474
 925.1000, -81.754
 925.2000,-210.000
 925.3000,-210.000
 925.4000, -82.304
 925.5000, -72.990
 925.6000,-210.000
 925.7000, -85.074
 925.8000, -78.834
 925.9000,-210.000
 926.0000,-210.000
 926.1000, -83.925
 926.2000, -76.772
 926.3000, -82.090
 926.4000,-210.000
 926.5000,-210.000
 926.6000, -78.500
 926.7000, -78.694
 926.8000,-210.000
 926.9000, -86.616
 927.0000,-210.000
 927.1000,-210.000
 927.2000, -80.826
 927.3000, -76.400
 927.4000,-210.000
 927.5000,-210.000
 927.6000, -80.411
 927.7000,-210.000
 927.8000,-210.000
 927.9000, -79.920
 928.0000, -80.251
 928.1000,-210.000
 928.2000, -80.894
 928.3000, -99.129
 928.4000,-210.000
 928.5000,-210.000
 928.6000, -87.500
 928.7000, -81.498
 928.8000, -78.191
 928.9000,-210.000
 929.0000,-210.000
 929.1000, -83.427
 929.2000,-210.000
 929.3000, -77.048
 929.4000,-210.000
 929.5000,-210.000
 929.6000, -78.878
 929.7000, -82.886
 929.8000, -80.061
 929.9000,-210.000
 930.0000, -96.697
 930.1000,-210.000
 930.2000,-210.000
 930.3000,-210.000
 930.4000, -74.719
 930.5000,-210.000
 930.6000,-210.000
 930.7000, -81.166
 930.8000,-210.000
 930.9000,-210.000
 931.0000, -86.512
 931.1000,-210.000
 931.2000,-210.000
 931.3000, -82.591
 931.4000,-210.000
 931.5000,-210.000
 931.6000, -77.227
 931.7000,-210.000
 931.8000, -79.950
 931.9000, -80.267
 932.0000,-210.000
 932.1000,-210.000
 932.2000, -81.560
 932.3000, -85.810
 932.4000,-210.000
 932.5000, -81.423
 932.6000, -80.879
 932.7000, -88.545
 932.8000,-210.000
 932.9000, -86.116
 933.0000, -79.156
 933.1000, -83.032
 933.2000, -90.249
 933.3000, -82.251
 933.4000, -86.016
 933.5000,-210.000
 933.6000,-210.000
 933.7000, -81.069
 933.8000, -79.646
 933.9000, -77.970
 934.0000,-210.000
 934.1000, -78.285
 934.2000,-210.000
 934.3000, -90.064
 934.4000,-210.000
 934.5000, -77.425
 934.6000, -83.339
 934.7000, -77.816
 934.8000,-210.000
 934.9000, -77.503
 935.0000,-210.000
 935.1000, -81.209
 935.2000,-210.000
 935.3000, -76.958
 935.4000,-210.000
 935.5000,-210.000
 935.6000, -78.051
 935.7000, -89.400
 935.8000,-210.000
 935.9000,-210.000
 936.0000,-210.000
 936.1000, -76.334
 936.2000, -85.491
 936.3000,-210.000
 936.4000, -82.943
 936.5000, -81.687
 936.6000,-210.000
 936.7000, -73.714
 936.8000,-210.000
 936.9000,-210.000
 937.0000, -82.642
 937.1000,-210.000
 937.2000, -76.743
 937.3000, -86.151
 937.4000, -83.713
 937.5000, -88.534
 937.6000, -79.412
 937.7000,-210.000
 937.8000,-210.000
 937.9000, -81.424
 938.0000,-210.000
 938.1000, -77.428
 938.2000, -80.753
 938.3000, -87.954
 938.4000, -78.683
 938.5000, -76.859
 938.6000, -76.738
 938.7000, -77.073
 938.8000, -79.992
 938.9000, -76.994
 939.0000, -83.371
 939.1000, -79.249
 939.2000, -78.305
 939.3000, -80.461
 939.4000, -80.025
 939.5000, -85.140
 939.6000,-210.000
 939.7000, -80.177
 939.8000, -85.736
 939.9000, -83.322
 940.0000, -82.165
 940.1000, -83.760
 940.2000, -84.002
 940.3000, -78.311
 940.4000,-210.000
 940.5000,-210.000
 940.6000, -86.899
 940.7000,-210.000
 940.8000, -79.836
 940.9000, -81.371
 941.0000, -82.386
 941.1000, -85.541
 941.2000, -85.625
 941.3000,-210.000
 941.4000, -81.281
 941.5000, -80.799
 941.6000,-210.000
 941.7000, -88.304
 941.8000,-210.000
 941.9000, -93.386
 942.0000,-210.000
 942.1000,-210.000
 942.2000, -79.673
 942.3000,-210.000
 942.4000, -81.931
 942.5000, -83.157
 942.6000, -83.203
 942.7000, -82.305
 942.8000, -81.699
 942.9000, -80.661
 943.0000,-210.000
 943.1000, -85.955
 943.2000, -80.983
 943.3000, -77.241
 943.4000,-210.000
 943.5000,-210.000
 943.6000, -82.163
 943.7000, -89.900
 943.8000, -84.928
 943.9000, -80.443
 944.0000,-210.000
 944.1000, -78.569
 944.2000,-210.000
 944.3000, -79.631
 944.4000, -84.534
 944.5000, -82.264
 944.6000, -76.816
 944.7000,-210.000
 944.8000,-210.000
 944.9000, -80.917
 945.0000,-210.000
 945.1000, -78.443
 945.2000, -78.688
 945.3000, -81.464
 945.4000, -93.853
 945.5000, -75.771
 945.6000, -79.121
 945.7000, -77.459
 945.8000, -78.753
 945.9000, -77.196
 946.0000, -73.459
 946.1000, -72.608
 946.2000, -75.907
 946.3000, -78.672
 946.4000, -75.512
 946.5000, -76.593
 946.6000, -76.984
 946.7000,-210.000
 946.8000, -79.861
 946.9000, -78.278
 947.0000, -79.172
 947.1000, -78.652
 947.2000, -77.231
 947.3000, -83.111
 947.4000,-210.000
 947.5000, -88.667
 947.6000, -81.794
 947.7000, -78.598
 947.8000, -81.260
 947.9000, -87.247
 948.0000, -81.293
 948.1000, -80.251
 948.2000, -97.374
 948.3000,-210.000
 948.4000, -77.262
 948.5000, -77.729
 948.6000,-210.000
 948.7000,-210.000
 948.8000,-210.000
 948.9000, -81.385
 949.0000, -82.236
 949.1000, -84.965
 949.2000, -82.598
 949.3000,-210.000
 949.4000, -81.582
 949.5000, -82.028
 949.6000, -84.566
 949.7000, -86.854
 949.8000,-210.000
 949.9000,-210.000
 950.0000,-210.000
 950.1000, -81.728
 950.2000, -79.287
 950.3000, -82.755
 950.4000, -87.472
 950.5000,-210.000
 950.6000,-210.000
 950.7000, -90.791
 950.8000,-210.000
 950.9000,-210.000
 951.0000, -85.122
 951.1000,-210.000
 951.2000, -79.337
 951.3000,-210.000
 951.4000, -82.684
 951.5000,-210.000
 951.6000, -80.558
 951.7000, -82.931
 951.8000, -88.181
 951.9000, -82.735
 952.0000,-210.000
 952.1000,-210.000
 952.2000,-210.000
 952.3000, -79.530
 952.4000, -79.963
 952.5000, -79.832
 952.6000,-210.000
 952.7000, -83.099
 952.8000, -86.912
 952.9000, -78.970
 953.0000, -95.426
 953.1000, -79.737
 953.2000,-210.000
 953.3000,-210.000
 953.4000,-210.000
 953.5000, -83.246
 953.6000,-210.000
 953.7000,-210.000
 953.8000, -87.110
 953.9000, -81.734
 954.0000, -82.891
 954.1000,-210.000
 954.2000, -80.451
 954.3000,-210.000
 954.4000, -84.098
 954.5000, -82.602
 954.6000, -77.439
 954.7000, -82.872
 954.8000,-210.000
 954.9000, -85.172
 955.0000, -84.203
 955.1000, -84.287
 955.2000, -80.881
 955.3000, -86.566
 955.4000, -82.707
 955.5000,-210.000
 955.6000, -91.010
 955.7000, -82.236
 955.8000, -88.975
 955.9000, -86.346
 956.0000, -84.187
 956.1000,-210.000
 956.2000, -83.973
 956.3000, -91.216
 956.4000, -81.576
 956.5000,-210.000
 956.6000, -84.601
 956.7000, -82.896
 956.8000, -80.281
 956.9000, -86.593
 957.0000,-210.000
 957.1000, -80.365
 957.2000,-210.000
 957.3000, -81.358
 957.4000, -79.054
 957.5000, -81.730
 957.6000, -83.375
 957.7000,-210.000
 957.8000, -87.373
 957.9000, -84.142
 958.0000,-210.000
 958.1000, -83.118
 958.2000, -91.441
 958.3000, -82.008
 958.4000,-210.000
 958.5000, -84.815
 958.6000,-210.000
 958.7000, -92.982
 958.8000, -83.335
 958.9000,-210.000
 959.0000, -80.986
 959.1000, -84.709
 959.2000, -88.864
 959.3000, -82.975
 959.4000, -91.445
 959.5000, -85.114
 959.6000, -78.881
 959.7000,-210.000
 959.8000, -82.717
 959.9000, -82.623
 960.0000,-210.000
 960.1000,-210.000
 960.2000, -78.183
 960.3000,-210.000
 960.4000, -81.365
 960.5000, -83.853
 960.6000,-210.000
 960.7000, -80.791
 960.8000, -95.306
 960.9000,-210.000
 961.0000, -76.924
 961.1000,-210.000
 961.2000,-210.000
 961.3000, -82.172
 961.4000, -81.273
 961.5000, -79.438
 961.6000,-210.000
 961.7000,-210.000
 961.8000,-210.000
 961.9000, -88.644
 962.0000, -82.531
 962.1000, -86.450
 962.2000,-210.000
 962.3000,-210.000
 962.4000, -83.530
 962.5000, -89.866
 962.6000, -83.110
 962.7000, -82.399
 962.8000, -78.879
 962.9000, -89.288
 963.0000,-210.000
 963.1000, -89.040
 963.2000, -82.411
 963.3000, -97.018
 963.4000, -86.223
 963.5000, -88.202
 963.6000,-210.000
 963.7000, -82.427
 963.8000,-210.000
 963.9000, -81.439
 964.0000, -83.723
 964.1000, -77.407
 964.2000,-210.000
 964.3000, -76.089
 964.4000, -91.522
 964.5000, -95.564
 964.6000, -82.515
 964.7000, -94.808
 964.8000,-210.000
 964.9000,-210.000
 965.0000, -78.275
 965.1000, -84.744
 965.2000, -82.190
 965.3000, -81.097
 965.4000, -94.356
 965.5000,-210.000
 965.6000, -86.016
 965.7000, -82.771
 965.8000,-210.000
 965.9000, -85.210
 966.0000, -87.492
 966.1000, -81.563
 966.2000,-210.000
 966.3000, -85.925
 966.4000, -90.059
 966.5000, -80.530
 966.6000,-210.000
 966.7000, -80.442
 966.8000,-210.000
 966.9000, -80.618
 967.0000, -84.999
 967.1000,-210.000
 967.2000, -76.869
 967.3000,-210.000
 967.4000, -81.985
 967.5000, -89.723
 967.6000, -85.804
 967.7000, -81.933
 967.8000, -82.938
 967.9000,-210.000
 968.0000, -82.561
 968.1000, -80.917
 968.2000,-210.000
 968.3000, -86.366
 968.4000, -80.088
 968.5000, -84.185
 968.6000, -90.993
 968.7000, -83.060
 968.8000, -88.768
 968.9000, -89.746
 969.0000,-210.000
 969.1000, -82.130
 969.2000,-210.000
 969.3000, -82.656
 969.4000, -86.005
 969.5000,-210.000
 969.6000, -84.483
 969.7000, -90.191
 969.8000,-210.000
 969.9000, -82.041
 970.0000, -85.830
 970.1000, -86.372
 970.2000, -90.511
 970.3000,-210.000
 970.4000, -84.131
 970.5000,-210.000
 970.6000, -88.219
 970.7000, -82.343
 970.8000, -84.988
 970.9000,-210.000
 971.0000, -83.713
 971.1000, -84.195
 971.2000,-210.000
 971.3000, -84.750
 971.4000,-210.000
 971.5000, -91.407
 971.6000, -81.859
 971.7000,-210.000
 971.8000, -81.009
 971.9000, -91.033
 972.0000,-210.000
 972.1000, -82.038
 972.2000, -80.228
 972.3000,-210.000
 972.4000, -83.165
 972.5000, -79.837
 972.6000,-210.000
 972.7000, -81.408
 972.8000, -83.481
 972.9000,-210.000
 973.0000, -93.585
 973.1000, -89.110
 973.2000, -79.176
 973.3000, -83.188
 973.4000,-210.000
 973.5000, -85.028
 973.6000, -84.823
 973.7000,-210.000
 973.8000, -84.107
 973.9000, -80.662
 974.0000, -82.304
 974.1000, -90.039
 974.2000, -91.561
 974.3000,-210.000
 974.4000, -84.416
 974.5000, -79.413
 974.6000,-210.000
 974.7000, -83.775
 974.8000,-210.000
 974.9000, -82.947
 975.0000, -95.018
 975.1000,-210.000
 975.2000, -82.356
 975.3000, -87.714
 975.4000, -83.325
 975.5000, -88.263
 975.6000, -81.295
 975.7000,-210.000
 975.8000, -83.561
 975.9000, -90.115
 976.0000, -88.132
 976.1000,-210.000
 976.2000, -80.369
 976.3000, -83.139
 976.4000, -85.635
 976.5000, -79.630
 976.6000,-210.000
 976.7000,-210.000
 976.8000,-210.000
 976.9000, -80.584
 977.0000, -75.362
 977.1000, -77.671
 977.2000,-210.000
 977.3000, -78.644
 977.4000, -90.406
 977.5000, -83.597
 977.6000,-210.000
 977.7000, -84.536
 977.8000,-210.000
 977.9000, -77.384
 978.0000, -80.674
 978.1000, -96.640
 978.2000,-210.000
 978.3000,-210.000
 978.4000, -72.520
 978.5000,-210.000
 978.6000,-210.000
 978.7000, -76.423
 978.8000, -77.468
 978.9000,-210.000
 979.0000, -74.453
 979.1000,-210.000
 979.2000,-210.000
 979.3000, -77.345
 979.4000,-210.000
 979.5000, -95.425
 979.6000, -78.118
 979.7000,-210.000
 979.8000,-210.000
 979.9000, -77.273
 980.0000,-210.000
 980.1000,-210.000
 980.2000, -78.082
 980.3000,-210.000
 980.4000, -87.136
 980.5000, -75.165
 980.6000,-210.000
 980.7000,-210.000
 980.8000, -85.122
 980.9000,-210.000
 981.0000, -88.424
 981.1000,-210.000
 981.2000,-210.000
 981.3000, -81.725
 981.4000, -77.297
 981.5000, -81.285
 981.6000, -81.309
 981.7000,-210.000
 981.8000, -76.209
 981.9000, -79.128
 982.0000, -82.777
 982.1000,-210.000
 982.2000,-210.000
 982.3000, -78.152
 982.4000,-210.000
 982.5000,-210.000
 982.6000, -78.300
 982.7000, -83.795
 982.8000, -84.219
 982.9000, -84.836
 983.0000, -82.222
 983.1000,-210.000
 983.2000, -83.788
 983.3000, -77.923
 983.4000,-210.000
 983.5000, -85.808
 983.6000, -78.171
 983.7000,-210.000
 983.8000, -78.593
 983.9000, -75.548
 984.0000,-210.000
 984.1000,-210.000
 984.2000, -79.514
 984.3000, -79.458
 984.4000,-210.000
 984.5000,-210.000
 984.6000, -80.717
 984.7000,-210.000
 984.8000, -78.560
 984.9000,-210.000
 985.0000, -91.925
 985.1000, -83.346
 985.2000, -85.131
 985.3000, -82.036
 985.4000, -81.152
 985.5000, -82.934
 985.6000,-210.000
 985.7000,-210.000
 985.8000, -82.839
 985.9000, -81.583
 986.0000,-210.000
 986.1000, -83.332
 986.2000,-210.000
 986.3000, -82.391
 986.4000, -90.178
 986.5000,-210.000
 986.6000, -82.475
 986.7000,-210.000
 986.8000, -83.860
 986.9000,-210.000
 987.0000, -87.379
 987.1000, -85.829
 987.2000,-210.000
 987.3000, -83.430
 987.4000, -81.012
 987.5000, -81.845
 987.6000, -80.116
 987.7000, -82.830
 987.8000, -85.249
 987.9000,-210.000
 988.0000,-210.000
 988.1000, -79.983
 988.2000, -89.549
 988.3000, -82.283
 988.4000, -82.480
 988.5000, -78.148
 988.6000,-210.000
 988.7000, -87.007
 988.8000,-210.000
 988.9000,-210.000
 989.0000, -81.200
 989.1000, -87.221
 989.2000,-210.000
 989.3000, -79.718
 989.4000,-210.000
 989.5000, -97.166
 989.6000, -82.042
 989.7000,-210.000
 989.8000,-210.000
 989.9000, -80.468
 990.0000, -85.228
 990.1000, -82.383
 990.2000, -96.442
 990.3000,-210.000
 990.4000, -81.967
 990.5000, -89.878
 990.6000,-210.000
 990.7000, -87.364
 990.8000,-101.828
 990.9000, -86.727
 991.0000, -88.262
 991.1000, -85.146
 991.2000,-210.000
 991.3000, -79.345
 991.4000,-210.000
 991.5000, -87.310
 991.6000,-210.000
 991.7000, -84.954
 991.8000, -83.927
 991.9000, -91.780
 992.0000,-210.000
 992.1000, -82.551
 992.2000, -84.006
 992.3000,-210.000
 992.4000, -88.256
 992.5000,-210.000
 992.6000, -82.578
 992.7000, -83.091
 992.8000,-210.000
 992.9000,-210.000
 993.0000,-210.000
 993.1000, -82.423
 993.2000, -85.203
 993.3000, -77.229
 993.4000, -83.457
 993.5000,-210.000
 993.6000,-210.000
 993.7000, -92.547
 993.8000,-210.000
 993.9000,-210.000
 994.0000,-210.000
 994.1000, -86.454
 994.2000, -81.816
 994.3000, -81.581
 994.4000,-210.000
 994.5000,-210.000
 994.6000, -85.868
 994.7000, -90.355
 994.8000,-210.000
 994.9000, -75.515
 995.0000, -83.509
 995.1000, -81.927
 995.2000, -99.911
 995.3000, -80.136
 995.4000, -92.328
 995.5000, -98.594
 995.6000, -81.448
 995.7000, -79.418
 995.8000,-210.000
 995.9000,-210.000
 996.0000,-210.000
 996.1000,-210.000
 996.2000, -84.842
 996.3000,-210.000
 996.4000, -86.104
 996.5000, -80.195
 996.6000, -86.508
 996.7000,-210.000
 996.8000, -82.843
 996.9000,-210.000
 997.0000, -81.330
 997.1000,-210.000
 997.2000,-210.000
 997.3000,-210.000
 997.4000, -82.254
 997.5000, -97.355
 997.6000,-210.000
 997.7000,-210.000
 997.8000, -84.646
 997.9000, -79.525
 998.0000, -83.800
 998.1000, -86.903
 998.2000,-210.000
 998.3000,-210.000
 998.4000, -88.429
 998.5000,-109.484
 998.6000, -85.306
 998.7000,-210.000
 998.8000, -92.012
 998.9000, -81.067
 999.0000, -90.235
 999.1000, -86.899
 999.2000, -87.210
 999.3000, -82.989
 999.4000,-210.000
 999.5000, -83.666
 999.6000, -81.308
 999.7000, -88.308
 999.8000, -83.638
 999.9000, -81.179
1000.0000,-210.000
1000.1000,-210.000
1000.2000, -76.055
1000.3000, -83.375
1000.4000,-210.000
1000.5000,-210.000
1000.6000, -77.044
1000.7000,-210.000
1000.8000, -83.288
1000.9000,-210.000
1001.0000, -77.832
1001.1000,-210.000
1001.2000, -81.982
1001.3000,-210.000
1001.4000,-210.000
1001.5000,-210.000
1001.6000,-210.000
1001.7000, -84.281
1001.8000, -84.689
1001.9000, -84.672
1002.0000, -86.021
1002.1000, -86.770
1002.2000, -88.363
1002.3000, -84.937
1002.4000,-210.000
1002.5000, -87.630
1002.6000,-210.000
1002.7000, -83.765
1002.8000, -85.426
1002.9000, -85.550
1003.0000, -84.607
1003.1000,-210.000
