70BCSV 	
// AQ6370B OPTICAL SPECTRUM ANALYZER //                 
25
"CTRWL",1300.000000
"SPAN", 800.000000
"START WL", 900.000000
"STOP WL",1700.000000
"WLFREQ", 0
"REFL",-17.2
"LSCL",10.0
"RESLN",0.500
"AVG",   1
"SMPLAUTO",      1
"SMPL",       8001
"SMPLINTVL",0.1000
"HIGH1"
"MEAS"
"LSUNT",0
"NMSKH","OFF"
"RESCOR",0
"RESPARM", 9740
"FREQPARM", 9740






"[TRACE DATA]"
 900.0000, -75.255
 900.1000,-210.000
 900.2000, -74.036
 900.3000,-210.000
 900.4000,-210.000
 900.5000, -74.297
 900.6000, -82.305
 900.7000, -74.837
 900.8000, -74.688
 900.9000, -74.149
 901.0000, -77.290
 901.1000,-210.000
 901.2000, -76.524
 901.3000, -81.542
 901.4000, -86.260
 901.5000, -74.484
 901.6000, -73.941
 901.7000, -71.654
 901.8000, -81.593
 901.9000, -77.182
 902.0000, -75.781
 902.1000, -72.554
 902.2000, -75.088
 902.3000, -72.673
 902.4000,-210.000
 902.5000, -81.183
 902.6000, -77.463
 902.7000, -74.162
 902.8000, -73.530
 902.9000,-210.000
 903.0000, -72.812
 903.1000, -73.350
 903.2000,-210.000
 903.3000, -72.671
 903.4000, -76.568
 903.5000, -76.582
 903.6000, -72.935
 903.7000,-210.000
 903.8000, -72.282
 903.9000, -81.830
 904.0000, -71.067
 904.1000, -74.518
 904.2000, -81.657
 904.3000, -78.511
 904.4000, -82.930
 904.5000, -73.065
 904.6000, -72.019
 904.7000, -75.047
 904.8000, -75.107
 904.9000, -77.519
 905.0000, -79.677
 905.1000, -70.376
 905.2000,-210.000
 905.3000, -76.130
 905.4000, -76.713
 905.5000,-210.000
 905.6000, -73.046
 905.7000, -71.519
 905.8000,-210.000
 905.9000, -74.749
 906.0000, -77.375
 906.1000,-210.000
 906.2000, -76.217
 906.3000, -88.365
 906.4000, -92.422
 906.5000, -75.954
 906.6000, -73.980
 906.7000,-210.000
 906.8000, -75.233
 906.9000, -73.469
 907.0000, -72.580
 907.1000, -76.185
 907.2000, -77.348
 907.3000, -74.170
 907.4000, -78.850
 907.5000, -82.265
 907.6000, -76.002
 907.7000, -76.420
 907.8000, -74.381
 907.9000, -75.918
 908.0000, -73.068
 908.1000, -73.959
 908.2000,-210.000
 908.3000, -79.027
 908.4000, -74.052
 908.5000, -75.253
 908.6000, -74.305
 908.7000,-210.000
 908.8000, -76.674
 908.9000, -72.491
 909.0000, -78.398
 909.1000, -76.218
 909.2000, -74.897
 909.3000,-210.000
 909.4000, -73.291
 909.5000, -77.080
 909.6000, -85.137
 909.7000, -75.782
 909.8000, -73.923
 909.9000, -79.890
 910.0000, -78.007
 910.1000, -77.190
 910.2000, -74.888
 910.3000, -75.647
 910.4000, -77.006
 910.5000, -73.995
 910.6000, -83.011
 910.7000, -82.685
 910.8000, -76.402
 910.9000, -77.816
 911.0000, -76.052
 911.1000, -73.355
 911.2000, -75.465
 911.3000, -74.158
 911.4000,-210.000
 911.5000, -77.468
 911.6000, -75.761
 911.7000, -75.766
 911.8000, -78.059
 911.9000, -76.490
 912.0000, -73.991
 912.1000, -73.165
 912.2000,-210.000
 912.3000, -75.393
 912.4000, -73.572
 912.5000, -81.907
 912.6000, -75.050
 912.7000, -78.035
 912.8000, -70.922
 912.9000,-210.000
 913.0000, -75.015
 913.1000, -74.235
 913.2000, -75.268
 913.3000, -76.021
 913.4000, -73.077
 913.5000,-210.000
 913.6000, -74.742
 913.7000, -75.610
 913.8000, -79.912
 913.9000,-210.000
 914.0000, -76.946
 914.1000, -75.170
 914.2000, -80.749
 914.3000, -77.253
 914.4000,-210.000
 914.5000, -75.315
 914.6000, -71.799
 914.7000, -87.661
 914.8000, -81.267
 914.9000, -78.819
 915.0000,-210.000
 915.1000, -73.694
 915.2000, -77.301
 915.3000, -84.405
 915.4000, -76.735
 915.5000, -83.151
 915.6000, -75.927
 915.7000, -78.958
 915.8000, -76.958
 915.9000, -73.899
 916.0000, -83.156
 916.1000, -74.900
 916.2000, -81.719
 916.3000, -77.078
 916.4000, -75.153
 916.5000, -79.845
 916.6000, -74.091
 916.7000, -77.378
 916.8000, -82.100
 916.9000, -78.879
 917.0000, -74.258
 917.1000, -79.739
 917.2000, -77.329
 917.3000, -78.737
 917.4000,-210.000
 917.5000, -74.981
 917.6000, -73.913
 917.7000, -87.607
 917.8000,-210.000
 917.9000, -75.088
 918.0000, -78.818
 918.1000, -77.168
 918.2000, -78.467
 918.3000,-210.000
 918.4000, -76.165
 918.5000, -76.223
 918.6000, -79.927
 918.7000, -78.499
 918.8000, -80.143
 918.9000, -74.224
 919.0000, -89.951
 919.1000, -73.376
 919.2000, -77.490
 919.3000,-210.000
 919.4000,-210.000
 919.5000, -73.542
 919.6000, -77.779
 919.7000, -73.487
 919.8000, -77.286
 919.9000, -79.611
 920.0000,-210.000
 920.1000, -70.669
 920.2000, -78.436
 920.3000, -75.172
 920.4000, -89.809
 920.5000,-210.000
 920.6000,-210.000
 920.7000, -79.060
 920.8000, -86.090
 920.9000,-210.000
 921.0000, -74.528
 921.1000, -86.652
 921.2000, -74.761
 921.3000, -78.612
 921.4000, -76.557
 921.5000, -73.094
 921.6000,-210.000
 921.7000,-210.000
 921.8000, -80.698
 921.9000, -78.806
 922.0000, -77.063
 922.1000, -78.497
 922.2000, -82.666
 922.3000, -77.963
 922.4000,-210.000
 922.5000, -75.214
 922.6000, -76.333
 922.7000, -77.831
 922.8000, -77.180
 922.9000, -86.317
 923.0000,-210.000
 923.1000, -75.663
 923.2000, -88.717
 923.3000, -75.787
 923.4000,-210.000
 923.5000, -83.085
 923.6000, -81.731
 923.7000, -82.434
 923.8000, -83.014
 923.9000, -76.963
 924.0000, -75.397
 924.1000, -76.073
 924.2000,-210.000
 924.3000, -86.557
 924.4000, -83.334
 924.5000,-210.000
 924.6000, -77.159
 924.7000, -82.991
 924.8000, -81.936
 924.9000, -77.544
 925.0000, -88.503
 925.1000, -76.917
 925.2000,-210.000
 925.3000, -73.785
 925.4000, -76.970
 925.5000, -77.599
 925.6000,-210.000
 925.7000, -76.231
 925.8000, -77.370
 925.9000, -77.993
 926.0000, -78.404
 926.1000, -78.395
 926.2000, -87.920
 926.3000, -78.244
 926.4000, -77.368
 926.5000, -82.966
 926.6000, -77.963
 926.7000, -84.967
 926.8000, -79.097
 926.9000, -82.581
 927.0000, -82.198
 927.1000, -77.084
 927.2000, -83.288
 927.3000, -77.606
 927.4000, -76.685
 927.5000, -79.511
 927.6000, -79.334
 927.7000, -75.589
 927.8000,-210.000
 927.9000, -78.443
 928.0000, -86.363
 928.1000, -80.677
 928.2000, -76.198
 928.3000, -78.747
 928.4000, -83.602
 928.5000, -80.773
 928.6000, -79.645
 928.7000, -77.583
 928.8000, -78.240
 928.9000, -77.529
 929.0000, -77.812
 929.1000,-210.000
 929.2000, -82.233
 929.3000, -75.290
 929.4000,-210.000
 929.5000,-210.000
 929.6000, -78.693
 929.7000, -75.231
 929.8000, -78.257
 929.9000, -79.714
 930.0000, -77.019
 930.1000, -76.453
 930.2000, -79.658
 930.3000,-210.000
 930.4000, -76.941
 930.5000, -77.816
 930.6000, -75.239
 930.7000,-210.000
 930.8000, -92.996
 930.9000, -77.515
 931.0000, -78.565
 931.1000, -92.237
 931.2000, -76.234
 931.3000, -77.397
 931.4000, -77.562
 931.5000, -77.667
 931.6000, -79.274
 931.7000, -77.096
 931.8000,-210.000
 931.9000,-210.000
 932.0000, -79.129
 932.1000, -79.892
 932.2000, -76.210
 932.3000,-210.000
 932.4000, -80.389
 932.5000, -80.290
 932.6000, -83.331
 932.7000, -83.062
 932.8000, -75.446
 932.9000, -79.954
 933.0000, -75.292
 933.1000,-210.000
 933.2000, -77.163
 933.3000, -86.155
 933.4000, -76.125
 933.5000, -81.518
 933.6000,-210.000
 933.7000,-210.000
 933.8000,-210.000
 933.9000, -76.323
 934.0000, -79.069
 934.1000, -77.188
 934.2000, -86.542
 934.3000, -75.544
 934.4000, -77.140
 934.5000,-210.000
 934.6000, -78.941
 934.7000,-210.000
 934.8000, -78.114
 934.9000, -80.398
 935.0000, -76.544
 935.1000,-107.373
 935.2000, -81.208
 935.3000, -85.783
 935.4000, -81.876
 935.5000, -79.025
 935.6000, -80.310
 935.7000, -78.651
 935.8000, -79.401
 935.9000,-210.000
 936.0000, -77.888
 936.1000, -82.301
 936.2000, -75.778
 936.3000, -78.533
 936.4000,-210.000
 936.5000, -77.969
 936.6000, -88.351
 936.7000, -75.387
 936.8000, -83.311
 936.9000,-210.000
 937.0000, -77.396
 937.1000, -78.309
 937.2000, -84.297
 937.3000, -81.210
 937.4000, -81.211
 937.5000, -80.971
 937.6000, -78.097
 937.7000, -80.765
 937.8000, -78.488
 937.9000, -79.061
 938.0000, -77.047
 938.1000, -75.229
 938.2000, -76.602
 938.3000, -76.265
 938.4000, -78.818
 938.5000, -74.295
 938.6000, -80.598
 938.7000, -77.201
 938.8000, -76.854
 938.9000, -75.761
 939.0000, -74.886
 939.1000, -76.888
 939.2000, -80.180
 939.3000, -76.574
 939.4000, -78.037
 939.5000, -78.184
 939.6000,-210.000
 939.7000, -76.521
 939.8000, -78.511
 939.9000, -79.061
 940.0000, -78.574
 940.1000, -74.745
 940.2000, -78.207
 940.3000,-210.000
 940.4000, -81.340
 940.5000, -77.522
 940.6000, -84.545
 940.7000, -77.869
 940.8000, -86.430
 940.9000, -80.485
 941.0000, -81.317
 941.1000, -80.429
 941.2000, -88.025
 941.3000, -80.128
 941.4000, -86.385
 941.5000,-210.000
 941.6000, -77.751
 941.7000, -78.457
 941.8000, -78.525
 941.9000, -78.638
 942.0000, -82.365
 942.1000,-210.000
 942.2000, -83.630
 942.3000, -80.486
 942.4000, -76.976
 942.5000, -80.162
 942.6000, -77.994
 942.7000, -79.710
 942.8000, -80.373
 942.9000, -83.611
 943.0000, -77.420
 943.1000, -78.896
 943.2000, -83.660
 943.3000, -80.681
 943.4000, -76.856
 943.5000, -84.131
 943.6000, -78.466
 943.7000, -83.577
 943.8000, -79.710
 943.9000, -85.538
 944.0000, -76.774
 944.1000, -76.265
 944.2000, -88.674
 944.3000, -79.999
 944.4000, -80.558
 944.5000, -75.385
 944.6000, -80.079
 944.7000,-210.000
 944.8000, -76.756
 944.9000, -79.921
 945.0000, -77.409
 945.1000, -77.586
 945.2000, -74.891
 945.3000,-210.000
 945.4000, -77.801
 945.5000, -73.774
 945.6000, -74.601
 945.7000, -74.387
 945.8000, -74.595
 945.9000, -72.209
 946.0000, -72.706
 946.1000, -74.618
 946.2000, -72.073
 946.3000, -71.683
 946.4000, -75.724
 946.5000, -75.316
 946.6000, -73.377
 946.7000, -75.137
 946.8000, -74.330
 946.9000, -76.721
 947.0000, -78.552
 947.1000, -79.880
 947.2000, -81.288
 947.3000, -76.241
 947.4000, -77.344
 947.5000, -80.031
 947.6000, -79.130
 947.7000, -76.620
 947.8000, -78.942
 947.9000, -81.653
 948.0000, -80.964
 948.1000, -74.531
 948.2000, -77.094
 948.3000, -79.764
 948.4000,-210.000
 948.5000,-210.000
 948.6000, -77.624
 948.7000, -83.029
 948.8000, -87.816
 948.9000, -81.442
 949.0000, -77.206
 949.1000, -77.103
 949.2000, -78.222
 949.3000, -77.399
 949.4000,-210.000
 949.5000,-210.000
 949.6000, -77.730
 949.7000, -79.495
 949.8000, -77.481
 949.9000,-210.000
 950.0000,-210.000
 950.1000, -78.492
 950.2000, -79.220
 950.3000, -83.995
 950.4000, -84.258
 950.5000, -81.683
 950.6000, -80.968
 950.7000, -82.197
 950.8000, -79.910
 950.9000, -77.646
 951.0000,-210.000
 951.1000, -77.344
 951.2000,-210.000
 951.3000, -80.601
 951.4000,-210.000
 951.5000, -81.069
 951.6000, -77.072
 951.7000, -75.071
 951.8000, -81.723
 951.9000, -80.440
 952.0000, -87.999
 952.1000,-210.000
 952.2000,-210.000
 952.3000, -75.452
 952.4000, -83.623
 952.5000,-210.000
 952.6000, -85.152
 952.7000, -81.346
 952.8000,-210.000
 952.9000, -75.936
 953.0000, -81.545
 953.1000, -93.267
 953.2000, -86.071
 953.3000, -81.841
 953.4000, -82.180
 953.5000,-210.000
 953.6000, -81.657
 953.7000, -78.754
 953.8000, -85.267
 953.9000,-210.000
 954.0000, -82.017
 954.1000,-210.000
 954.2000, -94.372
 954.3000, -80.045
 954.4000, -77.072
 954.5000,-210.000
 954.6000, -78.450
 954.7000, -88.332
 954.8000, -80.912
 954.9000, -77.340
 955.0000, -80.613
 955.1000, -81.550
 955.2000, -92.154
 955.3000,-210.000
 955.4000, -78.730
 955.5000,-210.000
 955.6000, -77.257
 955.7000, -85.608
 955.8000, -85.750
 955.9000, -83.040
 956.0000, -81.264
 956.1000,-210.000
 956.2000, -82.440
 956.3000, -80.528
 956.4000, -79.625
 956.5000,-210.000
 956.6000, -82.784
 956.7000, -79.280
 956.8000, -80.384
 956.9000,-210.000
 957.0000,-108.894
 957.1000, -85.993
 957.2000, -81.387
 957.3000,-210.000
 957.4000, -78.386
 957.5000, -83.870
 957.6000, -80.533
 957.7000, -91.494
 957.8000, -83.360
 957.9000, -84.341
 958.0000, -78.178
 958.1000, -80.920
 958.2000, -81.061
 958.3000, -81.632
 958.4000, -85.869
 958.5000, -86.127
 958.6000, -77.583
 958.7000, -80.016
 958.8000, -84.669
 958.9000, -80.608
 959.0000, -83.860
 959.1000, -83.200
 959.2000, -79.344
 959.3000, -78.887
 959.4000, -80.709
 959.5000, -81.715
 959.6000, -81.554
 959.7000, -79.434
 959.8000, -82.537
 959.9000, -80.810
 960.0000,-210.000
 960.1000, -84.454
 960.2000, -78.587
 960.3000, -90.486
 960.4000, -78.662
 960.5000, -82.667
 960.6000, -90.406
 960.7000, -79.392
 960.8000, -89.329
 960.9000, -82.917
 961.0000, -85.621
 961.1000, -80.717
 961.2000, -79.183
 961.3000,-210.000
 961.4000, -78.372
 961.5000, -86.780
 961.6000, -82.706
 961.7000, -83.934
 961.8000, -79.412
 961.9000, -77.858
 962.0000, -80.477
 962.1000,-210.000
 962.2000, -78.976
 962.3000, -86.825
 962.4000,-210.000
 962.5000, -80.737
 962.6000, -79.168
 962.7000, -81.408
 962.8000, -91.144
 962.9000, -83.564
 963.0000, -76.353
 963.1000, -86.293
 963.2000, -78.710
 963.3000,-210.000
 963.4000, -83.719
 963.5000, -88.988
 963.6000, -76.111
 963.7000, -78.482
 963.8000,-210.000
 963.9000,-210.000
 964.0000, -85.996
 964.1000, -83.679
 964.2000, -83.591
 964.3000, -82.752
 964.4000, -78.809
 964.5000, -91.756
 964.6000, -80.666
 964.7000, -76.998
 964.8000, -83.840
 964.9000, -78.203
 965.0000,-210.000
 965.1000, -85.998
 965.2000, -82.809
 965.3000, -81.276
 965.4000, -80.305
 965.5000, -82.809
 965.6000, -82.156
 965.7000, -82.589
 965.8000, -83.824
 965.9000, -76.955
 966.0000, -84.593
 966.1000, -80.832
 966.2000,-210.000
 966.3000, -79.412
 966.4000, -80.590
 966.5000, -82.172
 966.6000, -82.119
 966.7000, -86.522
 966.8000,-210.000
 966.9000, -76.588
 967.0000, -78.195
 967.1000,-210.000
 967.2000, -87.477
 967.3000, -90.687
 967.4000,-210.000
 967.5000, -79.138
 967.6000, -81.174
 967.7000, -81.816
 967.8000, -83.317
 967.9000, -82.026
 968.0000, -78.024
 968.1000, -85.099
 968.2000,-210.000
 968.3000, -82.551
 968.4000, -79.229
 968.5000, -84.663
 968.6000, -78.339
 968.7000, -83.327
 968.8000,-210.000
 968.9000, -81.660
 969.0000, -76.106
 969.1000,-210.000
 969.2000, -79.557
 969.3000, -83.936
 969.4000, -78.228
 969.5000,-210.000
 969.6000, -85.444
 969.7000, -76.641
 969.8000,-210.000
 969.9000, -80.019
 970.0000,-210.000
 970.1000, -76.662
 970.2000, -79.779
 970.3000,-210.000
 970.4000, -80.196
 970.5000,-210.000
 970.6000, -81.590
 970.7000, -77.804
 970.8000, -77.171
 970.9000,-210.000
 971.0000,-210.000
 971.1000, -78.185
 971.2000, -80.793
 971.3000, -78.641
 971.4000, -85.838
 971.5000,-210.000
 971.6000, -80.586
 971.7000, -82.245
 971.8000, -78.625
 971.9000, -85.148
 972.0000, -82.162
 972.1000, -86.144
 972.2000, -77.609
 972.3000, -87.529
 972.4000, -80.543
 972.5000, -78.540
 972.6000, -87.169
 972.7000, -79.299
 972.8000,-210.000
 972.9000, -90.774
 973.0000, -76.748
 973.1000, -84.201
 973.2000,-210.000
 973.3000, -83.073
 973.4000, -79.254
 973.5000, -83.077
 973.6000, -84.317
 973.7000, -81.918
 973.8000, -79.022
 973.9000,-210.000
 974.0000,-210.000
 974.1000,-210.000
 974.2000, -75.110
 974.3000, -77.570
 974.4000, -85.351
 974.5000,-210.000
 974.6000, -84.534
 974.7000, -78.746
 974.8000,-210.000
 974.9000, -79.754
 975.0000,-210.000
 975.1000, -94.552
 975.2000, -84.348
 975.3000, -80.553
 975.4000, -84.714
 975.5000, -83.156
 975.6000, -89.957
 975.7000, -77.600
 975.8000, -81.136
 975.9000, -82.534
 976.0000,-210.000
 976.1000,-210.000
 976.2000, -79.249
 976.3000,-210.000
 976.4000, -77.042
 976.5000, -80.307
 976.6000, -77.153
 976.7000, -83.204
 976.8000, -87.974
 976.9000, -83.851
 977.0000, -91.465
 977.1000, -80.797
 977.2000, -80.354
 977.3000, -92.102
 977.4000,-210.000
 977.5000,-210.000
 977.6000, -78.550
 977.7000, -78.412
 977.8000, -81.214
 977.9000, -81.939
 978.0000, -80.053
 978.1000, -95.004
 978.2000, -82.487
 978.3000,-210.000
 978.4000, -97.832
 978.5000, -79.052
 978.6000, -89.953
 978.7000, -80.622
 978.8000,-210.000
 978.9000, -78.595
 979.0000, -89.490
 979.1000,-210.000
 979.2000, -80.573
 979.3000, -79.725
 979.4000,-210.000
 979.5000, -84.387
 979.6000, -82.329
 979.7000,-210.000
 979.8000, -77.003
 979.9000, -80.103
 980.0000,-124.458
 980.1000, -87.804
 980.2000, -77.114
 980.3000, -79.820
 980.4000,-210.000
 980.5000,-210.000
 980.6000, -75.359
 980.7000,-210.000
 980.8000, -77.278
 980.9000, -80.174
 981.0000, -80.404
 981.1000, -85.435
 981.2000, -93.783
 981.3000, -81.705
 981.4000, -77.457
 981.5000, -87.706
 981.6000,-210.000
 981.7000, -77.221
 981.8000,-210.000
 981.9000, -80.709
 982.0000, -79.271
 982.1000, -81.100
 982.2000,-210.000
 982.3000,-210.000
 982.4000, -78.477
 982.5000, -84.535
 982.6000, -78.780
 982.7000, -80.708
 982.8000, -88.105
 982.9000, -81.234
 983.0000, -79.978
 983.1000, -84.246
 983.2000, -86.352
 983.3000, -80.171
 983.4000, -79.618
 983.5000, -81.573
 983.6000, -85.111
 983.7000, -79.711
 983.8000, -82.058
 983.9000, -80.697
 984.0000, -78.630
 984.1000,-210.000
 984.2000, -82.121
 984.3000, -78.156
 984.4000,-210.000
 984.5000, -82.592
 984.6000,-210.000
 984.7000, -84.947
 984.8000, -79.375
 984.9000,-210.000
 985.0000, -91.642
 985.1000, -83.658
 985.2000, -79.531
 985.3000, -81.840
 985.4000, -97.250
 985.5000, -88.086
 985.6000, -81.499
 985.7000, -83.386
 985.8000, -89.819
 985.9000, -80.514
 986.0000, -79.524
 986.1000, -80.808
 986.2000, -86.014
 986.3000, -89.151
 986.4000, -82.125
 986.5000, -82.119
 986.6000, -83.284
 986.7000, -85.098
 986.8000, -77.901
 986.9000,-210.000
 987.0000, -80.757
 987.1000, -78.572
 987.2000, -82.158
 987.3000, -83.104
 987.4000,-210.000
 987.5000, -81.391
 987.6000, -77.852
 987.7000,-210.000
 987.8000, -80.580
 987.9000, -84.517
 988.0000, -79.080
 988.1000,-210.000
 988.2000,-210.000
 988.3000, -82.819
 988.4000, -89.134
 988.5000, -79.088
 988.6000,-210.000
 988.7000, -82.975
 988.8000, -82.105
 988.9000, -81.873
 989.0000, -83.926
 989.1000,-210.000
 989.2000, -81.313
 989.3000, -79.796
 989.4000, -80.673
 989.5000,-210.000
 989.6000, -84.910
 989.7000, -81.827
 989.8000, -88.661
 989.9000, -80.564
 990.0000, -94.233
 990.1000, -82.109
 990.2000, -82.883
 990.3000, -83.711
 990.4000,-100.402
 990.5000, -80.006
 990.6000,-210.000
 990.7000, -80.629
 990.8000, -88.806
 990.9000, -81.535
 991.0000, -86.403
 991.1000, -83.313
 991.2000, -80.374
 991.3000,-210.000
 991.4000, -78.137
 991.5000, -79.840
 991.6000, -88.220
 991.7000, -90.049
 991.8000, -83.979
 991.9000, -79.666
 992.0000, -87.858
 992.1000, -82.756
 992.2000, -80.425
 992.3000, -82.101
 992.4000, -85.593
 992.5000, -81.657
 992.6000, -81.401
 992.7000, -80.964
 992.8000, -82.467
 992.9000, -83.054
 993.0000, -88.400
 993.1000, -86.377
 993.2000, -81.558
 993.3000, -84.459
 993.4000, -80.734
 993.5000, -87.128
 993.6000, -89.882
 993.7000, -82.343
 993.8000, -80.725
 993.9000, -88.583
 994.0000, -82.911
 994.1000, -84.101
 994.2000, -83.507
 994.3000, -82.843
 994.4000, -81.237
 994.5000, -83.269
 994.6000, -83.761
 994.7000, -83.158
 994.8000, -88.675
 994.9000, -80.501
 995.0000,-103.599
 995.1000, -79.627
 995.2000, -82.720
 995.3000, -83.808
 995.4000, -81.353
 995.5000,-210.000
 995.6000, -87.685
 995.7000, -94.726
 995.8000, -81.801
 995.9000, -81.636
 996.0000, -86.427
 996.1000, -83.741
 996.2000,-102.211
 996.3000, -80.519
 996.4000, -84.361
 996.5000, -86.591
 996.6000, -82.759
 996.7000, -80.966
 996.8000, -79.095
 996.9000,-210.000
 997.0000, -84.356
 997.1000, -86.236
 997.2000, -83.368
 997.3000, -81.601
 997.4000, -83.655
 997.5000, -80.048
 997.6000, -84.637
 997.7000, -82.745
 997.8000, -81.139
 997.9000, -84.773
 998.0000, -80.122
 998.1000, -86.244
 998.2000, -82.103
 998.3000, -81.732
 998.4000, -81.007
 998.5000, -85.438
 998.6000, -80.926
 998.7000, -89.390
 998.8000, -87.687
 998.9000, -83.762
 999.0000, -83.880
 999.1000, -84.221
 999.2000, -82.003
 999.3000, -79.868
 999.4000,-210.000
 999.5000, -80.922
 999.6000, -87.389
 999.7000, -83.186
 999.8000, -80.841
 999.9000, -81.108
1000.0000, -84.587
1000.1000, -80.954
1000.2000, -81.684
1000.3000, -96.155
1000.4000, -98.557
1000.5000, -78.479
1000.6000, -82.725
1000.7000, -81.016
1000.8000, -79.977
1000.9000, -86.244
1001.0000, -79.602
1001.1000, -84.861
1001.2000, -80.682
1001.3000, -79.439
1001.4000, -90.526
1001.5000, -82.152
1001.6000, -81.811
1001.7000, -82.387
1001.8000, -81.232
1001.9000, -83.870
1002.0000,-210.000
1002.1000, -78.740
1002.2000, -80.705
1002.3000, -80.841
1002.4000,-210.000
1002.5000, -83.689
1002.6000, -82.317
1002.7000, -88.016
1002.8000, -78.583
1002.9000,-210.000
1003.0000, -78.370
1003.1000, -81.786
