70BCSV 	
// AQ6370B OPTICAL SPECTRUM ANALYZER //                 
25
"CTRWL",1300.000000
"SPAN", 800.000000
"START WL", 900.000000
"STOP WL",1700.000000
"WLFREQ", 0
"REFL",-17.2
"LSCL",10.0
"RESLN",0.500
"AVG",   1
"SMPLAUTO",      1
"SMPL",       8001
"SMPLINTVL",0.1000
"HIGH1"
"MEAS"
"LSUNT",0
"NMSKH","OFF"
"RESCOR",0
"RESPARM", 9740
"FREQPARM", 9740






"[TRACE DATA]"
 900.0000, -65.846
 900.1000, -65.236
 900.2000, -66.206
 900.3000, -67.998
 900.4000, -65.593
 900.5000, -64.899
 900.6000, -66.817
 900.7000, -69.499
 900.8000, -65.051
 900.9000, -66.551
 901.0000, -67.352
 901.1000, -65.629
 901.2000, -66.078
 901.3000, -66.333
 901.4000, -67.607
 901.5000, -66.909
 901.6000, -66.873
 901.7000, -65.975
 901.8000, -66.305
 901.9000, -66.334
 902.0000, -66.389
 902.1000, -67.472
 902.2000, -65.170
 902.3000, -69.030
 902.4000, -66.667
 902.5000, -66.465
 902.6000, -66.906
 902.7000, -68.152
 902.8000, -66.515
 902.9000, -65.012
 903.0000, -66.053
 903.1000, -68.554
 903.2000, -65.547
 903.3000, -68.296
 903.4000, -67.949
 903.5000, -67.027
 903.6000, -66.124
 903.7000, -66.807
 903.8000, -66.128
 903.9000, -67.837
 904.0000, -67.375
 904.1000, -66.328
 904.2000, -67.280
 904.3000, -67.410
 904.4000, -66.427
 904.5000, -66.553
 904.6000, -68.513
 904.7000, -68.031
 904.8000, -66.741
 904.9000, -66.729
 905.0000, -66.634
 905.1000, -67.918
 905.2000, -67.760
 905.3000, -67.032
 905.4000, -66.605
 905.5000, -67.028
 905.6000, -67.215
 905.7000, -67.066
 905.8000, -68.696
 905.9000, -66.529
 906.0000, -67.700
 906.1000, -67.808
 906.2000, -67.515
 906.3000, -66.350
 906.4000, -67.157
 906.5000, -67.414
 906.6000, -67.722
 906.7000, -67.443
 906.8000, -67.858
 906.9000, -67.410
 907.0000, -67.808
 907.1000, -67.091
 907.2000, -67.174
 907.3000, -68.270
 907.4000, -67.178
 907.5000, -67.923
 907.6000, -66.934
 907.7000, -68.037
 907.8000, -69.109
 907.9000, -66.685
 908.0000, -69.547
 908.1000, -67.755
 908.2000, -66.657
 908.3000, -67.830
 908.4000, -68.750
 908.5000, -66.990
 908.6000, -68.477
 908.7000, -68.393
 908.8000, -68.798
 908.9000, -67.730
 909.0000, -67.672
 909.1000, -67.545
 909.2000, -67.710
 909.3000, -68.024
 909.4000, -69.820
 909.5000, -68.387
 909.6000, -67.358
 909.7000, -67.376
 909.8000, -68.851
 909.9000, -67.725
 910.0000, -69.727
 910.1000, -67.984
 910.2000, -69.076
 910.3000, -67.812
 910.4000, -67.616
 910.5000, -68.167
 910.6000, -68.741
 910.7000, -68.457
 910.8000, -69.301
 910.9000, -68.291
 911.0000, -67.894
 911.1000, -69.072
 911.2000, -69.442
 911.3000, -69.090
 911.4000, -68.624
 911.5000, -68.345
 911.6000, -68.610
 911.7000, -69.297
 911.8000, -68.644
 911.9000, -67.917
 912.0000, -68.287
 912.1000, -70.257
 912.2000, -68.945
 912.3000, -68.454
 912.4000, -69.615
 912.5000, -68.748
 912.6000, -68.376
 912.7000, -69.343
 912.8000, -68.410
 912.9000, -68.378
 913.0000, -69.547
 913.1000, -69.554
 913.2000, -67.664
 913.3000, -69.857
 913.4000, -69.856
 913.5000, -68.590
 913.6000, -68.478
 913.7000, -70.307
 913.8000, -69.497
 913.9000, -68.867
 914.0000, -68.976
 914.1000, -69.173
 914.2000, -69.271
 914.3000, -69.539
 914.4000, -68.626
 914.5000, -69.470
 914.6000, -68.669
 914.7000, -69.272
 914.8000, -70.139
 914.9000, -69.038
 915.0000, -68.815
 915.1000, -69.080
 915.2000, -70.165
 915.3000, -68.572
 915.4000, -68.878
 915.5000, -69.295
 915.6000, -69.150
 915.7000, -69.620
 915.8000, -69.509
 915.9000, -69.616
 916.0000, -69.522
 916.1000, -69.363
 916.2000, -70.251
 916.3000, -69.483
 916.4000, -69.781
 916.5000, -70.345
 916.6000, -69.563
 916.7000, -69.207
 916.8000, -69.107
 916.9000, -69.880
 917.0000, -70.190
 917.1000, -69.681
 917.2000, -70.438
 917.3000, -69.390
 917.4000, -69.044
 917.5000, -69.632
 917.6000, -69.239
 917.7000, -71.437
 917.8000, -70.875
 917.9000, -70.218
 918.0000, -69.193
 918.1000, -69.277
 918.2000, -69.402
 918.3000, -68.825
 918.4000, -69.252
 918.5000, -72.396
 918.6000, -69.841
 918.7000, -69.537
 918.8000, -68.784
 918.9000, -71.477
 919.0000, -71.744
 919.1000, -68.420
 919.2000, -69.779
 919.3000, -71.204
 919.4000, -71.141
 919.5000, -68.240
 919.6000, -73.880
 919.7000, -69.031
 919.8000, -68.990
 919.9000, -70.430
 920.0000, -70.444
 920.1000, -71.386
 920.2000, -70.500
 920.3000, -70.487
 920.4000, -70.897
 920.5000, -71.350
 920.6000, -70.572
 920.7000, -71.200
 920.8000, -68.844
 920.9000, -71.220
 921.0000, -72.196
 921.1000, -72.494
 921.2000, -69.714
 921.3000, -69.866
 921.4000, -71.427
 921.5000, -71.279
 921.6000, -70.640
 921.7000, -69.797
 921.8000, -70.764
 921.9000, -69.536
 922.0000, -69.419
 922.1000, -69.912
 922.2000, -73.263
 922.3000, -69.254
 922.4000, -72.393
 922.5000, -71.317
 922.6000, -70.184
 922.7000, -70.151
 922.8000, -70.339
 922.9000, -70.466
 923.0000, -70.891
 923.1000, -71.985
 923.2000, -70.474
 923.3000, -70.554
 923.4000, -71.255
 923.5000, -71.901
 923.6000, -70.958
 923.7000, -71.128
 923.8000, -70.269
 923.9000, -70.198
 924.0000, -72.483
 924.1000, -69.841
 924.2000, -70.617
 924.3000, -70.686
 924.4000, -69.294
 924.5000, -71.802
 924.6000, -79.977
 924.7000, -70.846
 924.8000, -71.817
 924.9000, -69.030
 925.0000, -71.113
 925.1000, -71.786
 925.2000, -71.271
 925.3000, -69.571
 925.4000, -72.511
 925.5000, -71.458
 925.6000, -71.361
 925.7000, -71.273
 925.8000, -71.556
 925.9000, -70.669
 926.0000, -71.971
 926.1000, -71.424
 926.2000, -70.962
 926.3000, -71.214
 926.4000, -71.463
 926.5000, -70.682
 926.6000, -70.586
 926.7000, -71.363
 926.8000, -71.467
 926.9000, -71.941
 927.0000, -71.126
 927.1000, -71.521
 927.2000, -70.468
 927.3000, -71.719
 927.4000, -71.069
 927.5000, -71.662
 927.6000, -71.251
 927.7000, -70.816
 927.8000, -70.576
 927.9000, -70.208
 928.0000, -72.511
 928.1000, -72.512
 928.2000, -70.360
 928.3000, -72.672
 928.4000, -71.621
 928.5000, -71.920
 928.6000, -71.003
 928.7000, -71.120
 928.8000, -70.760
 928.9000, -72.674
 929.0000, -71.737
 929.1000, -71.792
 929.2000, -71.339
 929.3000, -72.266
 929.4000, -72.506
 929.5000, -72.511
 929.6000, -71.012
 929.7000, -71.557
 929.8000, -72.506
 929.9000, -71.687
 930.0000, -72.147
 930.1000, -71.673
 930.2000, -72.187
 930.3000, -73.198
 930.4000, -70.866
 930.5000, -72.198
 930.6000, -72.370
 930.7000, -71.948
 930.8000, -71.924
 930.9000, -72.295
 931.0000, -71.296
 931.1000, -72.304
 931.2000, -72.003
 931.3000, -71.678
 931.4000, -72.059
 931.5000, -72.136
 931.6000, -72.161
 931.7000, -71.117
 931.8000, -71.938
 931.9000, -71.776
 932.0000, -72.264
 932.1000, -71.402
 932.2000, -71.568
 932.3000, -72.250
 932.4000, -71.844
 932.5000, -72.159
 932.6000, -72.024
 932.7000, -72.406
 932.8000, -72.227
 932.9000, -70.815
 933.0000, -74.226
 933.1000, -72.725
 933.2000, -71.727
 933.3000, -72.499
 933.4000, -70.955
 933.5000, -71.493
 933.6000, -72.741
 933.7000, -73.079
 933.8000, -71.202
 933.9000, -73.557
 934.0000, -74.114
 934.1000, -71.548
 934.2000, -73.016
 934.3000, -71.228
 934.4000, -70.749
 934.5000, -71.829
 934.6000, -73.325
 934.7000, -72.943
 934.8000, -73.737
 934.9000, -72.423
 935.0000, -71.386
 935.1000, -72.541
 935.2000, -71.352
 935.3000, -72.725
 935.4000, -72.059
 935.5000, -72.973
 935.6000, -70.752
 935.7000, -71.762
 935.8000, -73.249
 935.9000, -73.148
 936.0000, -72.693
 936.1000, -73.710
 936.2000, -71.806
 936.3000, -71.944
 936.4000, -72.568
 936.5000, -72.904
 936.6000, -73.126
 936.7000, -71.996
 936.8000, -73.456
 936.9000, -72.232
 937.0000, -71.972
 937.1000, -72.341
 937.2000, -72.459
 937.3000, -71.534
 937.4000, -71.465
 937.5000, -72.640
 937.6000, -74.301
 937.7000, -71.984
 937.8000, -71.843
 937.9000, -72.093
 938.0000, -72.637
 938.1000, -71.278
 938.2000, -72.676
 938.3000, -70.778
 938.4000, -71.384
 938.5000, -71.015
 938.6000, -71.463
 938.7000, -70.372
 938.8000, -70.936
 938.9000, -71.625
 939.0000, -72.271
 939.1000, -72.736
 939.2000, -71.535
 939.3000, -71.947
 939.4000, -71.832
 939.5000, -72.464
 939.6000, -72.186
 939.7000, -72.225
 939.8000, -72.052
 939.9000, -72.861
 940.0000, -70.964
 940.1000, -73.351
 940.2000, -72.412
 940.3000, -72.669
 940.4000, -71.654
 940.5000, -72.955
 940.6000, -73.072
 940.7000, -73.090
 940.8000, -72.133
 940.9000, -72.341
 941.0000, -73.932
 941.1000, -74.347
 941.2000, -72.883
 941.3000, -71.899
 941.4000, -72.677
 941.5000, -72.161
 941.6000, -73.005
 941.7000, -73.250
 941.8000, -72.844
 941.9000, -71.649
 942.0000, -73.555
 942.1000, -73.947
 942.2000, -74.581
 942.3000, -71.597
 942.4000, -72.546
 942.5000, -72.189
 942.6000, -72.538
 942.7000, -74.084
 942.8000, -73.710
 942.9000, -72.376
 943.0000, -73.263
 943.1000, -72.857
 943.2000, -73.013
 943.3000, -73.088
 943.4000, -74.846
 943.5000, -72.738
 943.6000, -72.924
 943.7000, -73.280
 943.8000, -72.264
 943.9000, -73.360
 944.0000, -73.298
 944.1000, -72.970
 944.2000, -73.657
 944.3000, -73.012
 944.4000, -72.667
 944.5000, -72.760
 944.6000, -73.570
 944.7000, -72.039
 944.8000, -72.555
 944.9000, -72.399
 945.0000, -73.138
 945.1000, -72.611
 945.2000, -71.863
 945.3000, -71.747
 945.4000, -72.197
 945.5000, -71.856
 945.6000, -71.601
 945.7000, -70.488
 945.8000, -70.874
 945.9000, -70.130
 946.0000, -70.440
 946.1000, -70.262
 946.2000, -70.400
 946.3000, -70.301
 946.4000, -70.023
 946.5000, -70.605
 946.6000, -70.674
 946.7000, -72.028
 946.8000, -71.313
 946.9000, -71.792
 947.0000, -72.116
 947.1000, -72.231
 947.2000, -72.277
 947.3000, -73.801
 947.4000, -73.444
 947.5000, -72.482
 947.6000, -72.428
 947.7000, -72.766
 947.8000, -74.085
 947.9000, -73.983
 948.0000, -73.496
 948.1000, -73.191
 948.2000, -73.374
 948.3000, -72.861
 948.4000, -73.382
 948.5000, -73.400
 948.6000, -72.531
 948.7000, -73.729
 948.8000, -73.233
 948.9000, -74.484
 949.0000, -73.645
 949.1000, -72.463
 949.2000, -73.683
 949.3000, -73.642
 949.4000, -73.526
 949.5000, -73.399
 949.6000, -73.931
 949.7000, -72.683
 949.8000, -74.217
 949.9000, -73.987
 950.0000, -74.367
 950.1000, -73.263
 950.2000, -73.244
 950.3000, -73.385
 950.4000, -73.237
 950.5000, -72.934
 950.6000, -73.471
 950.7000, -73.458
 950.8000, -72.806
 950.9000, -72.921
 951.0000, -72.157
 951.1000, -78.157
 951.2000, -73.752
 951.3000, -72.581
 951.4000, -73.333
 951.5000, -73.080
 951.6000, -73.331
 951.7000, -73.442
 951.8000, -77.383
 951.9000, -72.808
 952.0000, -72.311
 952.1000, -74.057
 952.2000, -74.203
 952.3000, -75.161
 952.4000, -73.654
 952.5000, -74.096
 952.6000, -73.919
 952.7000, -73.062
 952.8000, -72.359
 952.9000, -76.134
 953.0000, -73.684
 953.1000, -73.620
 953.2000, -74.068
 953.3000, -73.879
 953.4000, -73.790
 953.5000, -73.302
 953.6000, -73.592
 953.7000, -73.553
 953.8000, -73.965
 953.9000, -75.713
 954.0000, -73.519
 954.1000, -72.780
 954.2000, -74.872
 954.3000, -74.123
 954.4000, -73.575
 954.5000, -74.893
 954.6000, -73.885
 954.7000, -73.565
 954.8000, -74.051
 954.9000, -74.445
 955.0000, -72.173
 955.1000, -73.688
 955.2000, -74.218
 955.3000, -74.875
 955.4000, -75.351
 955.5000, -74.490
 955.6000, -74.468
 955.7000, -74.264
 955.8000, -73.579
 955.9000, -74.581
 956.0000, -73.499
 956.1000, -74.523
 956.2000, -73.401
 956.3000, -74.184
 956.4000, -74.874
 956.5000, -74.139
 956.6000, -74.550
 956.7000, -76.855
 956.8000, -73.145
 956.9000, -74.573
 957.0000, -73.598
 957.1000, -74.139
 957.2000, -73.477
 957.3000, -73.429
 957.4000, -74.703
 957.5000, -73.899
 957.6000, -73.615
 957.7000, -74.006
 957.8000, -75.253
 957.9000, -74.574
 958.0000, -73.984
 958.1000, -74.049
 958.2000, -73.885
 958.3000, -74.305
 958.4000, -73.797
 958.5000, -74.489
 958.6000, -74.198
 958.7000, -74.528
 958.8000, -74.885
 958.9000, -73.122
 959.0000, -74.108
 959.1000, -74.239
 959.2000, -73.868
 959.3000, -74.181
 959.4000, -74.487
 959.5000, -73.507
 959.6000, -73.346
 959.7000, -75.496
 959.8000, -74.648
 959.9000, -74.472
 960.0000, -73.912
 960.1000, -74.525
 960.2000, -73.813
 960.3000, -73.918
 960.4000, -74.082
 960.5000, -74.476
 960.6000, -73.713
 960.7000, -74.470
 960.8000, -74.829
 960.9000, -73.470
 961.0000, -74.378
 961.1000, -73.982
 961.2000, -74.332
 961.3000, -73.681
 961.4000, -74.627
 961.5000, -74.598
 961.6000, -73.808
 961.7000, -73.604
 961.8000, -74.515
 961.9000, -74.633
 962.0000, -74.056
 962.1000, -74.525
 962.2000, -74.145
 962.3000, -74.294
 962.4000, -74.266
 962.5000, -73.955
 962.6000, -73.922
 962.7000, -74.762
 962.8000, -74.017
 962.9000, -74.626
 963.0000, -74.243
 963.1000, -74.416
 963.2000, -74.817
 963.3000, -74.559
 963.4000, -74.118
 963.5000, -76.399
 963.6000, -74.161
 963.7000, -73.765
 963.8000, -74.702
 963.9000, -74.776
 964.0000, -73.994
 964.1000, -74.005
 964.2000, -74.043
 964.3000, -74.608
 964.4000, -75.133
 964.5000, -74.166
 964.6000, -75.263
 964.7000, -74.202
 964.8000, -74.867
 964.9000, -74.551
 965.0000, -75.028
 965.1000, -73.901
 965.2000, -74.507
 965.3000, -73.910
 965.4000, -75.403
 965.5000, -74.198
 965.6000, -74.053
 965.7000, -74.525
 965.8000, -74.749
 965.9000, -73.989
 966.0000, -75.145
 966.1000, -74.291
 966.2000, -74.584
 966.3000, -74.572
 966.4000, -74.641
 966.5000, -73.735
 966.6000, -72.751
 966.7000, -73.862
 966.8000, -76.109
 966.9000, -78.057
 967.0000, -73.755
 967.1000, -74.170
 967.2000, -72.806
 967.3000, -74.635
 967.4000, -75.853
 967.5000, -74.930
 967.6000, -74.093
 967.7000, -74.818
 967.8000, -72.272
 967.9000, -75.187
 968.0000, -75.190
 968.1000, -74.522
 968.2000, -74.979
 968.3000, -73.962
 968.4000, -76.011
 968.5000, -74.525
 968.6000, -74.989
 968.7000, -75.276
 968.8000, -73.958
 968.9000, -74.439
 969.0000, -74.191
 969.1000, -75.096
 969.2000, -74.232
 969.3000, -75.308
 969.4000, -74.483
 969.5000, -74.741
 969.6000, -75.054
 969.7000, -74.304
 969.8000, -74.214
 969.9000, -74.602
 970.0000, -74.051
 970.1000, -75.169
 970.2000, -74.465
 970.3000, -74.561
 970.4000, -75.091
 970.5000, -74.594
 970.6000, -74.567
 970.7000, -75.063
 970.8000, -74.554
 970.9000, -74.545
 971.0000, -74.107
 971.1000, -74.716
 971.2000, -73.861
 971.3000, -73.906
 971.4000, -74.799
 971.5000, -73.357
 971.6000, -75.143
 971.7000, -75.372
 971.8000, -73.658
 971.9000, -76.356
 972.0000, -74.289
 972.1000, -74.638
 972.2000, -74.053
 972.3000, -74.472
 972.4000, -74.968
 972.5000, -73.142
 972.6000, -77.307
 972.7000, -76.207
 972.8000, -75.248
 972.9000, -74.668
 973.0000, -75.558
 973.1000, -73.758
 973.2000, -74.880
 973.3000, -73.223
 973.4000, -75.256
 973.5000, -76.316
 973.6000, -74.493
 973.7000, -74.027
 973.8000, -74.156
 973.9000, -75.219
 974.0000, -74.421
 974.1000, -75.097
 974.2000, -74.709
 974.3000, -75.447
 974.4000, -74.859
 974.5000, -74.541
 974.6000, -74.979
 974.7000, -74.373
 974.8000, -74.861
 974.9000, -74.429
 975.0000, -75.373
 975.1000, -75.075
 975.2000, -74.329
 975.3000, -75.536
 975.4000, -73.194
 975.5000, -74.824
 975.6000, -74.591
 975.7000, -74.997
 975.8000, -75.470
 975.9000, -73.691
 976.0000, -74.559
 976.1000, -75.006
 976.2000, -74.809
 976.3000, -74.477
 976.4000, -75.041
 976.5000, -74.517
 976.6000, -75.103
 976.7000, -74.182
 976.8000, -73.602
 976.9000, -73.473
 977.0000, -76.099
 977.1000, -75.738
 977.2000, -74.890
 977.3000, -74.553
 977.4000, -74.547
 977.5000, -73.812
 977.6000, -74.022
 977.7000, -76.837
 977.8000, -74.646
 977.9000, -74.550
 978.0000, -73.211
 978.1000, -74.889
 978.2000, -76.543
 978.3000, -74.837
 978.4000, -73.627
 978.5000, -74.836
 978.6000, -75.581
 978.7000, -75.553
 978.8000, -74.151
 978.9000, -74.651
 979.0000, -74.529
 979.1000, -75.198
 979.2000, -74.153
 979.3000, -75.517
 979.4000, -74.020
 979.5000, -74.677
 979.6000, -73.956
 979.7000, -75.119
 979.8000, -75.648
 979.9000, -75.249
 980.0000, -75.236
 980.1000, -74.293
 980.2000, -74.844
 980.3000, -74.668
 980.4000, -74.413
 980.5000, -75.911
 980.6000, -74.452
 980.7000, -74.430
 980.8000, -74.394
 980.9000, -75.239
 981.0000, -75.021
 981.1000, -75.094
 981.2000, -74.851
 981.3000, -74.130
 981.4000, -74.386
 981.5000, -74.862
 981.6000, -74.904
 981.7000, -73.628
 981.8000, -74.732
 981.9000, -75.322
 982.0000, -76.411
 982.1000, -74.915
 982.2000, -73.492
 982.3000, -77.062
 982.4000, -75.276
 982.5000, -75.087
 982.6000, -73.940
 982.7000, -75.453
 982.8000, -75.298
 982.9000, -75.033
 983.0000, -74.238
 983.1000, -73.507
 983.2000, -73.928
 983.3000, -75.908
 983.4000, -74.723
 983.5000, -73.981
 983.6000, -75.742
 983.7000, -75.271
 983.8000, -75.058
 983.9000, -74.956
 984.0000, -76.863
 984.1000, -74.810
 984.2000, -73.657
 984.3000, -73.572
 984.4000, -77.295
 984.5000, -74.632
 984.6000, -73.856
 984.7000, -74.135
 984.8000, -74.450
 984.9000, -73.524
 985.0000, -75.294
 985.1000, -74.782
 985.2000, -75.012
 985.3000, -76.130
 985.4000, -73.525
 985.5000, -74.243
 985.6000, -74.998
 985.7000, -75.961
 985.8000, -74.255
 985.9000, -73.460
 986.0000, -74.761
 986.1000, -78.916
 986.2000, -75.616
 986.3000, -73.509
 986.4000, -77.470
 986.5000, -74.278
 986.6000, -75.794
 986.7000, -76.142
 986.8000, -75.118
 986.9000, -74.462
 987.0000, -74.474
 987.1000, -74.976
 987.2000, -74.502
 987.3000, -77.783
 987.4000, -75.108
 987.5000, -73.514
 987.6000, -74.914
 987.7000, -76.096
 987.8000, -74.840
 987.9000, -75.350
 988.0000, -74.219
 988.1000, -75.749
 988.2000, -74.213
 988.3000, -74.289
 988.4000, -75.694
 988.5000, -74.133
 988.6000, -75.303
 988.7000, -75.620
 988.8000, -76.353
 988.9000, -75.382
 989.0000, -73.992
 989.1000, -77.503
 989.2000, -73.900
 989.3000, -75.432
 989.4000, -74.720
 989.5000, -76.016
 989.6000, -73.962
 989.7000, -75.161
 989.8000, -74.489
 989.9000, -74.974
 990.0000, -75.226
 990.1000, -75.562
 990.2000, -75.107
 990.3000, -76.547
 990.4000, -75.384
 990.5000, -74.709
 990.6000, -73.967
 990.7000, -75.809
 990.8000, -75.557
 990.9000, -76.816
 991.0000, -75.154
 991.1000, -74.780
 991.2000, -75.559
 991.3000, -74.519
 991.4000, -74.521
 991.5000, -75.110
 991.6000, -77.217
 991.7000, -75.797
 991.8000, -74.807
 991.9000, -74.833
 992.0000, -75.020
 992.1000, -74.302
 992.2000, -75.459
 992.3000, -76.260
 992.4000, -74.899
 992.5000, -74.958
 992.6000, -75.314
 992.7000, -75.375
 992.8000, -75.035
 992.9000, -73.510
 993.0000, -76.374
 993.1000, -77.411
 993.2000, -74.180
 993.3000, -75.851
 993.4000, -75.156
 993.5000, -75.628
 993.6000, -74.281
 993.7000, -75.619
 993.8000, -75.012
 993.9000, -75.841
 994.0000, -75.490
 994.1000, -75.028
 994.2000, -75.497
 994.3000, -74.438
 994.4000, -78.573
 994.5000, -75.252
 994.6000, -74.848
 994.7000, -76.373
 994.8000, -75.346
 994.9000, -74.308
 995.0000, -76.722
 995.1000, -74.977
 995.2000, -75.119
 995.3000, -74.724
 995.4000, -75.173
 995.5000, -77.319
 995.6000, -74.870
 995.7000, -74.981
 995.8000, -76.279
 995.9000, -75.297
 996.0000, -75.317
 996.1000, -75.764
 996.2000, -74.701
 996.3000, -74.505
 996.4000, -75.931
 996.5000, -75.061
 996.6000, -75.285
 996.7000, -75.041
 996.8000, -75.109
 996.9000, -76.129
 997.0000, -74.428
 997.1000, -75.676
 997.2000, -75.158
 997.3000, -76.585
 997.4000, -75.870
 997.5000, -75.139
 997.6000, -74.998
 997.7000, -74.492
 997.8000, -75.119
 997.9000, -76.213
 998.0000, -75.327
 998.1000, -76.142
 998.2000, -75.209
 998.3000, -75.545
 998.4000, -75.296
 998.5000, -76.512
 998.6000, -76.130
 998.7000, -74.899
 998.8000, -74.312
 998.9000, -74.743
 999.0000, -77.626
 999.1000, -75.088
 999.2000, -75.897
 999.3000, -75.694
 999.4000, -75.579
 999.5000, -76.220
 999.6000, -76.226
 999.7000, -74.528
 999.8000, -74.783
 999.9000, -75.714
1000.0000, -76.706
1000.1000, -74.878
1000.2000, -77.253
1000.3000, -74.873
1000.4000, -75.076
1000.5000, -75.498
1000.6000, -75.477
1000.7000, -75.225
1000.8000, -74.655
1000.9000, -75.735
1001.0000, -76.847
1001.1000, -75.689
1001.2000, -76.413
1001.3000, -75.192
1001.4000, -76.317
1001.5000, -76.080
1001.6000, -75.973
1001.7000, -75.641
1001.8000, -76.459
1001.9000, -74.959
1002.0000, -75.981
1002.1000, -75.885
1002.2000, -75.589
1002.3000, -74.888
1002.4000, -75.964
1002.5000, -75.449
1002.6000, -75.434
1002.7000, -75.616
1002.8000, -74.815
1002.9000, -75.895
1003.0000, -75.621
1003.1000, -75.482
