70BCSV 	
// AQ6370B OPTICAL SPECTRUM ANALYZER //                 
25
"CTRWL",1300.000000
"SPAN", 800.000000
"START WL", 900.000000
"STOP WL",1700.000000
"WLFREQ", 0
"REFL",-17.2
"LSCL",10.0
"RESLN",0.500
"AVG",   1
"SMPLAUTO",      1
"SMPL",       8001
"SMPLINTVL",0.1000
"HIGH1"
"MEAS"
"LSUNT",0
"NMSKH","OFF"
"RESCOR",0
"RESPARM", 9740
"FREQPARM", 9740






"[TRACE DATA]"
 900.0000, -66.585
 900.1000, -66.651
 900.2000, -73.387
 900.3000, -65.817
 900.4000, -70.027
 900.5000, -71.448
 900.6000, -67.528
 900.7000, -68.003
 900.8000, -67.019
 900.9000, -69.691
 901.0000, -67.832
 901.1000, -76.806
 901.2000, -66.677
 901.3000, -69.193
 901.4000, -70.778
 901.5000, -68.400
 901.6000, -68.532
 901.7000, -68.993
 901.8000, -68.668
 901.9000, -70.353
 902.0000, -68.593
 902.1000, -68.930
 902.2000, -70.247
 902.3000, -67.760
 902.4000, -69.361
 902.5000, -68.402
 902.6000, -69.282
 902.7000, -67.890
 902.8000, -70.106
 902.9000, -68.643
 903.0000, -68.245
 903.1000, -69.767
 903.2000, -68.963
 903.3000, -69.320
 903.4000, -68.985
 903.5000, -69.608
 903.6000, -68.325
 903.7000, -69.482
 903.8000, -68.828
 903.9000, -68.088
 904.0000, -70.141
 904.1000, -68.919
 904.2000, -67.987
 904.3000, -68.513
 904.4000, -69.144
 904.5000, -69.465
 904.6000, -70.361
 904.7000, -68.633
 904.8000, -69.235
 904.9000, -70.244
 905.0000, -70.071
 905.1000, -68.075
 905.2000, -68.680
 905.3000, -70.474
 905.4000, -69.590
 905.5000, -70.111
 905.6000, -68.434
 905.7000, -69.547
 905.8000, -70.283
 905.9000, -70.029
 906.0000, -71.017
 906.1000, -70.285
 906.2000, -69.337
 906.3000, -68.425
 906.4000, -70.865
 906.5000, -68.352
 906.6000, -70.020
 906.7000, -69.447
 906.8000, -70.031
 906.9000, -69.510
 907.0000, -68.995
 907.1000, -71.085
 907.2000, -69.605
 907.3000, -70.192
 907.4000, -70.175
 907.5000, -69.652
 907.6000, -70.051
 907.7000, -70.830
 907.8000, -69.657
 907.9000, -69.361
 908.0000, -69.571
 908.1000, -69.268
 908.2000, -69.662
 908.3000, -72.521
 908.4000, -69.426
 908.5000, -68.851
 908.6000, -71.489
 908.7000, -70.200
 908.8000, -69.677
 908.9000, -69.155
 909.0000, -70.821
 909.1000, -70.517
 909.2000, -71.105
 909.3000, -68.765
 909.4000, -70.857
 909.5000, -69.196
 909.6000, -71.720
 909.7000, -71.540
 909.8000, -69.225
 909.9000, -69.030
 910.0000, -70.724
 910.1000, -71.746
 910.2000, -69.835
 910.3000, -71.479
 910.4000, -69.581
 910.5000, -70.103
 910.6000, -69.159
 910.7000, -69.195
 910.8000, -75.964
 910.9000, -69.566
 911.0000, -72.534
 911.1000, -74.247
 911.2000, -71.145
 911.3000, -71.371
 911.4000, -70.953
 911.5000, -69.812
 911.6000, -70.841
 911.7000, -71.252
 911.8000, -70.498
 911.9000, -71.238
 912.0000, -69.467
 912.1000, -70.785
 912.2000, -72.745
 912.3000, -70.918
 912.4000, -70.447
 912.5000, -70.711
 912.6000, -71.410
 912.7000, -71.025
 912.8000, -70.948
 912.9000, -69.762
 913.0000, -70.373
 913.1000, -71.106
 913.2000, -69.331
 913.3000, -73.498
 913.4000, -70.036
 913.5000, -69.210
 913.6000,-210.000
 913.7000, -69.640
 913.8000, -70.317
 913.9000, -72.097
 914.0000, -71.127
 914.1000, -70.274
 914.2000, -72.932
 914.3000, -70.982
 914.4000, -69.114
 914.5000, -73.037
 914.6000, -69.821
 914.7000, -75.590
 914.8000, -71.096
 914.9000, -69.288
 915.0000, -74.564
 915.1000, -72.064
 915.2000, -71.627
 915.3000, -71.476
 915.4000, -71.373
 915.5000, -71.939
 915.6000, -72.538
 915.7000, -70.925
 915.8000, -72.605
 915.9000, -73.557
 916.0000, -70.663
 916.1000, -72.090
 916.2000, -72.156
 916.3000, -72.373
 916.4000, -70.458
 916.5000, -72.466
 916.6000, -76.696
 916.7000, -71.724
 916.8000, -71.211
 916.9000, -72.002
 917.0000, -71.347
 917.1000, -70.063
 917.2000, -71.721
 917.3000, -76.855
 917.4000, -69.549
 917.5000, -73.528
 917.6000, -74.843
 917.7000, -70.620
 917.8000, -72.478
 917.9000, -71.806
 918.0000, -71.247
 918.1000, -72.985
 918.2000, -71.026
 918.3000, -74.171
 918.4000, -71.551
 918.5000, -72.476
 918.6000, -71.271
 918.7000, -70.361
 918.8000, -72.077
 918.9000, -76.088
 919.0000, -72.346
 919.1000, -71.607
 919.2000, -72.016
 919.3000, -73.375
 919.4000, -71.130
 919.5000, -71.145
 919.6000, -73.495
 919.7000, -72.437
 919.8000, -73.179
 919.9000, -74.590
 920.0000, -71.811
 920.1000, -71.178
 920.2000, -70.681
 920.3000, -75.515
 920.4000, -72.335
 920.5000, -70.628
 920.6000, -71.638
 920.7000, -73.514
 920.8000, -76.613
 920.9000, -71.825
 921.0000, -72.112
 921.1000, -71.839
 921.2000, -74.407
 921.3000, -73.159
 921.4000, -72.352
 921.5000, -72.489
 921.6000, -73.724
 921.7000, -70.676
 921.8000, -73.393
 921.9000, -73.573
 922.0000, -74.712
 922.1000, -73.702
 922.2000, -72.889
 922.3000, -72.861
 922.4000, -72.937
 922.5000, -73.163
 922.6000, -72.612
 922.7000, -72.695
 922.8000, -72.040
 922.9000, -73.710
 923.0000, -72.546
 923.1000, -73.728
 923.2000, -72.464
 923.3000, -74.034
 923.4000, -71.224
 923.5000, -73.506
 923.6000, -72.470
 923.7000, -73.078
 923.8000, -73.302
 923.9000, -72.867
 924.0000, -71.979
 924.1000, -73.971
 924.2000, -73.191
 924.3000, -72.075
 924.4000, -71.465
 924.5000, -74.552
 924.6000, -75.668
 924.7000, -72.707
 924.8000, -72.084
 924.9000, -72.704
 925.0000, -73.320
 925.1000, -72.945
 925.2000, -72.601
 925.3000, -73.943
 925.4000, -72.723
 925.5000, -72.450
 925.6000, -73.145
 925.7000, -74.578
 925.8000, -73.001
 925.9000, -72.105
 926.0000, -71.852
 926.1000, -71.788
 926.2000, -76.832
 926.3000, -73.013
 926.4000, -73.389
 926.5000, -73.823
 926.6000, -73.202
 926.7000, -73.297
 926.8000, -74.630
 926.9000, -72.370
 927.0000, -75.126
 927.1000, -74.046
 927.2000, -72.159
 927.3000, -73.275
 927.4000, -73.621
 927.5000, -73.584
 927.6000, -73.806
 927.7000, -75.283
 927.8000, -72.781
 927.9000, -73.281
 928.0000, -74.326
 928.1000, -72.714
 928.2000, -74.019
 928.3000, -75.585
 928.4000, -72.646
 928.5000, -74.043
 928.6000, -72.511
 928.7000, -74.831
 928.8000, -73.112
 928.9000, -73.766
 929.0000, -73.864
 929.1000, -73.520
 929.2000, -73.625
 929.3000, -73.393
 929.4000, -73.717
 929.5000, -75.055
 929.6000, -72.756
 929.7000, -74.150
 929.8000, -72.987
 929.9000, -73.718
 930.0000, -74.121
 930.1000, -76.270
 930.2000, -73.704
 930.3000, -73.423
 930.4000, -74.506
 930.5000, -73.843
 930.6000, -72.119
 930.7000, -75.507
 930.8000, -73.969
 930.9000, -74.173
 931.0000, -73.023
 931.1000, -74.895
 931.2000, -73.715
 931.3000, -73.353
 931.4000, -73.325
 931.5000, -75.697
 931.6000, -73.679
 931.7000, -74.175
 931.8000, -73.909
 931.9000, -80.019
 932.0000, -72.984
 932.1000, -72.883
 932.2000, -73.805
 932.3000, -76.452
 932.4000, -74.377
 932.5000, -74.260
 932.6000, -74.211
 932.7000, -74.126
 932.8000, -73.703
 932.9000, -74.430
 933.0000, -74.075
 933.1000, -75.560
 933.2000, -74.935
 933.3000, -72.218
 933.4000, -74.952
 933.5000, -74.795
 933.6000, -73.905
 933.7000, -74.287
 933.8000, -73.420
 933.9000, -74.269
 934.0000, -74.692
 934.1000, -73.623
 934.2000, -74.298
 934.3000, -77.239
 934.4000, -74.650
 934.5000, -74.841
 934.6000, -73.908
 934.7000, -73.378
 934.8000, -73.005
 934.9000, -76.902
 935.0000, -74.626
 935.1000, -74.855
 935.2000, -75.725
 935.3000, -74.132
 935.4000, -73.384
 935.5000, -73.487
 935.6000, -74.125
 935.7000, -75.826
 935.8000, -72.818
 935.9000, -73.337
 936.0000, -78.194
 936.1000, -78.381
 936.2000, -71.753
 936.3000, -76.529
 936.4000, -77.087
 936.5000, -73.918
 936.6000, -74.661
 936.7000, -73.804
 936.8000, -75.743
 936.9000, -73.368
 937.0000, -75.581
 937.1000, -73.951
 937.2000, -74.255
 937.3000, -74.885
 937.4000, -73.845
 937.5000, -74.326
 937.6000, -73.774
 937.7000, -73.473
 937.8000, -76.815
 937.9000, -72.799
 938.0000, -73.675
 938.1000, -72.277
 938.2000, -72.718
 938.3000, -73.157
 938.4000, -72.419
 938.5000, -72.795
 938.6000, -72.657
 938.7000, -73.175
 938.8000, -72.098
 938.9000, -71.965
 939.0000, -72.845
 939.1000, -72.778
 939.2000, -70.951
 939.3000, -78.088
 939.4000, -74.061
 939.5000, -74.976
 939.6000, -74.062
 939.7000, -73.991
 939.8000, -73.853
 939.9000, -72.611
 940.0000, -76.475
 940.1000, -76.880
 940.2000, -73.983
 940.3000, -73.582
 940.4000, -74.674
 940.5000, -74.881
 940.6000, -74.157
 940.7000, -74.541
 940.8000, -75.827
 940.9000, -75.332
 941.0000, -75.440
 941.1000, -74.627
 941.2000, -75.182
 941.3000, -74.690
 941.4000, -75.357
 941.5000, -74.159
 941.6000, -76.184
 941.7000, -76.340
 941.8000, -75.508
 941.9000, -75.767
 942.0000, -74.927
 942.1000, -73.623
 942.2000, -77.556
 942.3000, -74.311
 942.4000, -74.647
 942.5000, -74.231
 942.6000, -74.303
 942.7000, -75.462
 942.8000, -74.448
 942.9000, -75.004
 943.0000, -77.493
 943.1000, -74.177
 943.2000, -74.904
 943.3000, -74.183
 943.4000, -75.552
 943.5000, -77.375
 943.6000, -73.750
 943.7000, -72.874
 943.8000, -75.177
 943.9000, -72.960
 944.0000, -76.891
 944.1000, -79.486
 944.2000, -73.794
 944.3000, -74.728
 944.4000, -74.878
 944.5000, -73.352
 944.6000, -74.638
 944.7000, -74.655
 944.8000, -76.575
 944.9000, -74.844
 945.0000, -72.063
 945.1000, -75.412
 945.2000, -76.032
 945.3000, -72.116
 945.4000, -74.512
 945.5000, -72.518
 945.6000, -72.085
 945.7000, -72.152
 945.8000, -72.119
 945.9000, -70.850
 946.0000, -70.687
 946.1000, -70.793
 946.2000, -70.457
 946.3000, -70.158
 946.4000, -71.940
 946.5000, -70.803
 946.6000, -71.435
 946.7000, -71.443
 946.8000, -73.957
 946.9000, -72.619
 947.0000, -72.520
 947.1000, -74.348
 947.2000, -74.094
 947.3000, -74.248
 947.4000, -75.100
 947.5000, -72.519
 947.6000, -73.003
 947.7000, -74.685
 947.8000, -76.800
 947.9000, -75.880
 948.0000, -75.509
 948.1000, -72.588
 948.2000, -79.685
 948.3000, -74.568
 948.4000, -74.202
 948.5000, -76.549
 948.6000, -76.375
 948.7000, -73.635
 948.8000, -76.357
 948.9000, -76.528
 949.0000, -73.415
 949.1000, -73.869
 949.2000, -76.267
 949.3000, -74.723
 949.4000, -77.712
 949.5000, -74.601
 949.6000, -73.973
 949.7000, -80.945
 949.8000, -74.295
 949.9000, -75.197
 950.0000, -74.105
 950.1000, -75.194
 950.2000, -74.358
 950.3000, -76.568
 950.4000, -74.185
 950.5000, -79.843
 950.6000, -75.720
 950.7000, -75.855
 950.8000, -75.331
 950.9000, -75.702
 951.0000, -78.691
 951.1000, -76.769
 951.2000, -75.461
 951.3000, -76.291
 951.4000, -78.279
 951.5000, -74.208
 951.6000, -73.835
 951.7000, -86.378
 951.8000, -74.208
 951.9000, -75.467
 952.0000, -75.821
 952.1000, -76.371
 952.2000, -77.137
 952.3000, -78.289
 952.4000, -74.335
 952.5000, -75.898
 952.6000, -74.695
 952.7000, -75.099
 952.8000, -77.443
 952.9000, -74.645
 953.0000, -75.446
 953.1000, -74.757
 953.2000, -76.366
 953.3000, -77.151
 953.4000, -74.466
 953.5000, -75.317
 953.6000, -74.498
 953.7000, -78.220
 953.8000, -74.594
 953.9000, -77.361
 954.0000, -74.149
 954.1000, -83.553
 954.2000, -75.813
 954.3000, -75.865
 954.4000, -76.400
 954.5000, -78.318
 954.6000, -75.467
 954.7000, -76.764
 954.8000, -76.015
 954.9000, -74.347
 955.0000, -75.371
 955.1000, -76.268
 955.2000, -75.348
 955.3000, -78.472
 955.4000, -74.835
 955.5000, -77.460
 955.6000, -75.695
 955.7000, -76.246
 955.8000, -75.380
 955.9000, -76.289
 956.0000, -75.950
 956.1000, -76.482
 956.2000, -77.019
 956.3000, -75.740
 956.4000, -75.896
 956.5000, -76.332
 956.6000, -75.220
 956.7000, -76.538
 956.8000, -76.074
 956.9000, -75.375
 957.0000, -74.956
 957.1000, -74.917
 957.2000, -79.538
 957.3000, -75.660
 957.4000, -75.758
 957.5000, -78.415
 957.6000, -74.578
 957.7000, -76.037
 957.8000, -76.424
 957.9000, -75.420
 958.0000, -77.112
 958.1000, -76.269
 958.2000, -76.264
 958.3000, -76.298
 958.4000, -76.726
 958.5000, -75.128
 958.6000, -75.283
 958.7000, -75.429
 958.8000, -76.144
 958.9000, -75.254
 959.0000, -76.236
 959.1000, -78.747
 959.2000, -74.828
 959.3000, -77.215
 959.4000, -75.201
 959.5000, -75.204
 959.6000, -77.696
 959.7000, -76.672
 959.8000, -74.586
 959.9000, -81.394
 960.0000, -74.862
 960.1000, -78.480
 960.2000, -77.590
 960.3000, -77.043
 960.4000, -76.111
 960.5000, -74.732
 960.6000, -76.312
 960.7000, -78.675
 960.8000, -77.606
 960.9000, -75.325
 961.0000, -74.684
 961.1000, -75.071
 961.2000, -87.666
 961.3000, -76.333
 961.4000, -73.529
 961.5000, -77.445
 961.6000, -76.635
 961.7000, -77.869
 961.8000, -78.364
 961.9000, -75.902
 962.0000, -75.431
 962.1000, -77.347
 962.2000, -76.848
 962.3000, -74.285
 962.4000, -74.715
 962.5000, -76.491
 962.6000, -85.741
 962.7000, -77.334
 962.8000, -76.125
 962.9000, -75.968
 963.0000, -79.008
 963.1000, -74.816
 963.2000, -74.759
 963.3000, -77.514
 963.4000, -77.721
 963.5000, -76.685
 963.6000, -77.762
 963.7000, -76.394
 963.8000, -76.186
 963.9000, -76.821
 964.0000, -75.990
 964.1000, -76.765
 964.2000, -76.528
 964.3000, -76.915
 964.4000, -74.956
 964.5000, -77.018
 964.6000, -77.006
 964.7000, -80.861
 964.8000, -75.353
 964.9000, -77.922
 965.0000, -76.834
 965.1000, -74.856
 965.2000, -74.090
 965.3000, -75.437
 965.4000, -93.454
 965.5000, -78.640
 965.6000, -76.498
 965.7000, -76.688
 965.8000, -75.446
 965.9000, -74.721
 966.0000, -77.490
 966.1000, -77.563
 966.2000, -78.005
 966.3000, -75.465
 966.4000, -77.408
 966.5000, -79.348
 966.6000, -78.246
 966.7000, -75.732
 966.8000, -76.952
 966.9000, -76.092
 967.0000, -78.941
 967.1000, -77.712
 967.2000, -76.032
 967.3000, -75.670
 967.4000, -77.510
 967.5000, -76.485
 967.6000, -79.659
 967.7000, -78.029
 967.8000, -77.047
 967.9000, -76.990
 968.0000, -76.082
 968.1000, -76.954
 968.2000, -78.711
 968.3000, -77.248
 968.4000, -76.227
 968.5000, -76.383
 968.6000, -76.996
 968.7000, -76.775
 968.8000, -74.309
 968.9000, -76.187
 969.0000, -78.376
 969.1000, -75.709
 969.2000, -77.321
 969.3000, -76.290
 969.4000, -76.052
 969.5000, -79.085
 969.6000, -75.524
 969.7000, -79.574
 969.8000, -76.768
 969.9000, -75.791
 970.0000, -76.546
 970.1000, -76.897
 970.2000, -77.080
 970.3000, -79.112
 970.4000, -81.533
 970.5000, -74.628
 970.6000, -76.299
 970.7000, -75.151
 970.8000, -82.282
 970.9000, -74.011
 971.0000, -75.905
 971.1000, -77.245
 971.2000, -75.295
 971.3000, -78.284
 971.4000, -77.962
 971.5000, -78.705
 971.6000, -77.192
 971.7000, -78.109
 971.8000, -76.520
 971.9000, -76.301
 972.0000, -76.707
 972.1000, -76.556
 972.2000, -77.980
 972.3000, -76.964
 972.4000, -75.716
 972.5000, -82.051
 972.6000, -75.098
 972.7000, -76.919
 972.8000, -74.537
 972.9000, -77.910
 973.0000, -77.755
 973.1000, -77.290
 973.2000, -77.220
 973.3000, -78.299
 973.4000, -76.332
 973.5000, -77.939
 973.6000, -77.486
 973.7000, -76.487
 973.8000, -77.088
 973.9000, -77.647
 974.0000, -76.022
 974.1000, -76.332
 974.2000, -80.033
 974.3000, -76.921
 974.4000, -76.178
 974.5000, -75.501
 974.6000, -80.522
 974.7000, -80.007
 974.8000, -75.793
 974.9000, -75.660
 975.0000, -78.136
 975.1000, -76.266
 975.2000, -77.705
 975.3000, -76.115
 975.4000, -76.128
 975.5000, -81.184
 975.6000, -78.947
 975.7000, -77.561
 975.8000, -77.654
 975.9000, -76.034
 976.0000, -77.603
 976.1000, -77.738
 976.2000, -76.609
 976.3000, -75.705
 976.4000, -77.790
 976.5000, -78.245
 976.6000, -76.064
 976.7000, -76.733
 976.8000, -76.394
 976.9000, -77.880
 977.0000, -75.841
 977.1000, -78.067
 977.2000, -76.589
 977.3000, -78.355
 977.4000, -75.975
 977.5000, -77.891
 977.6000, -77.952
 977.7000, -76.975
 977.8000, -77.656
 977.9000, -76.067
 978.0000, -76.622
 978.1000, -79.851
 978.2000, -76.517
 978.3000, -76.067
 978.4000, -78.499
 978.5000, -76.747
 978.6000, -76.182
 978.7000, -79.554
 978.8000, -78.187
 978.9000, -75.268
 979.0000, -77.598
 979.1000, -77.550
 979.2000, -77.606
 979.3000, -77.311
 979.4000, -78.431
 979.5000, -76.947
 979.6000, -78.561
 979.7000, -78.627
 979.8000, -75.949
 979.9000, -77.991
 980.0000, -76.644
 980.1000, -77.177
 980.2000, -77.887
 980.3000, -76.602
 980.4000, -77.906
 980.5000, -75.923
 980.6000, -78.732
 980.7000, -77.302
 980.8000, -77.015
 980.9000, -77.074
 981.0000, -79.874
 981.1000, -77.492
 981.2000, -77.332
 981.3000, -78.298
 981.4000, -75.159
 981.5000, -78.128
 981.6000, -79.557
 981.7000, -77.415
 981.8000, -77.247
 981.9000, -83.281
 982.0000, -76.291
 982.1000, -77.520
 982.2000, -75.056
 982.3000, -77.148
 982.4000, -80.138
 982.5000, -78.428
 982.6000, -79.087
 982.7000, -78.116
 982.8000, -77.426
 982.9000, -77.702
 983.0000, -76.597
 983.1000, -78.279
 983.2000, -78.163
 983.3000, -77.207
 983.4000, -78.508
 983.5000, -76.823
 983.6000, -76.915
 983.7000, -76.302
 983.8000, -77.003
 983.9000, -77.448
 984.0000, -75.351
 984.1000, -76.273
 984.2000, -77.217
 984.3000, -80.378
 984.4000, -76.612
 984.5000, -79.662
 984.6000, -76.886
 984.7000, -78.022
 984.8000, -76.702
 984.9000, -76.949
 985.0000, -80.430
 985.1000, -75.350
 985.2000, -80.502
 985.3000, -77.091
 985.4000, -77.569
 985.5000, -77.797
 985.6000, -76.646
 985.7000, -77.174
 985.8000, -78.316
 985.9000, -76.501
 986.0000, -76.912
 986.1000,-210.000
 986.2000, -78.113
 986.3000, -77.436
 986.4000, -76.305
 986.5000, -78.764
 986.6000, -78.846
 986.7000, -76.668
 986.8000, -78.469
 986.9000, -76.672
 987.0000, -77.082
 987.1000, -78.715
 987.2000, -77.232
 987.3000, -76.935
 987.4000, -77.990
 987.5000, -76.425
 987.6000, -78.138
 987.7000, -78.363
 987.8000, -77.736
 987.9000, -78.459
 988.0000, -77.076
 988.1000, -76.870
 988.2000, -76.203
 988.3000, -78.559
 988.4000, -74.486
 988.5000, -76.773
 988.6000, -79.897
 988.7000, -80.508
 988.8000, -78.624
 988.9000, -76.260
 989.0000, -82.067
 989.1000, -75.990
 989.2000, -84.581
 989.3000, -78.144
 989.4000, -76.386
 989.5000, -78.852
 989.6000, -77.920
 989.7000, -77.296
 989.8000, -77.570
 989.9000, -78.991
 990.0000, -78.811
 990.1000, -77.597
 990.2000, -77.147
 990.3000, -79.648
 990.4000, -76.733
 990.5000, -77.654
 990.6000, -77.055
 990.7000, -76.696
 990.8000, -77.781
 990.9000, -80.136
 991.0000, -77.466
 991.1000, -77.962
 991.2000, -77.253
 991.3000, -77.180
 991.4000, -75.479
 991.5000, -82.481
 991.6000, -76.620
 991.7000, -79.550
 991.8000, -78.132
 991.9000, -78.681
 992.0000, -78.450
 992.1000, -77.373
 992.2000, -76.119
 992.3000, -77.750
 992.4000, -83.006
 992.5000, -78.786
 992.6000, -78.268
 992.7000, -79.135
 992.8000, -77.886
 992.9000, -76.734
 993.0000, -78.459
 993.1000, -78.750
 993.2000, -76.980
 993.3000, -79.404
 993.4000, -77.877
 993.5000, -79.858
 993.6000, -79.026
 993.7000, -75.832
 993.8000, -78.276
 993.9000, -78.599
 994.0000, -79.429
 994.1000, -79.951
 994.2000, -77.473
 994.3000, -77.219
 994.4000, -77.300
 994.5000, -77.354
 994.6000, -79.706
 994.7000, -78.753
 994.8000, -78.490
 994.9000, -77.288
 995.0000, -78.474
 995.1000, -78.877
 995.2000, -77.897
 995.3000, -76.460
 995.4000, -80.408
 995.5000, -79.244
 995.6000, -77.157
 995.7000, -78.799
 995.8000, -75.285
 995.9000, -78.185
 996.0000,-210.000
 996.1000, -75.021
 996.2000,-210.000
 996.3000, -77.723
 996.4000, -77.119
 996.5000, -77.395
 996.6000, -76.442
 996.7000, -86.524
 996.8000, -77.548
 996.9000, -79.621
 997.0000, -77.877
 997.1000, -79.338
 997.2000, -77.728
 997.3000, -79.900
 997.4000, -76.400
 997.5000, -79.570
 997.6000, -77.811
 997.7000, -77.767
 997.8000, -80.070
 997.9000, -75.920
 998.0000, -78.282
 998.1000, -77.894
 998.2000, -77.306
 998.3000, -87.305
 998.4000, -79.429
 998.5000, -79.609
 998.6000, -79.504
 998.7000, -76.770
 998.8000, -78.862
 998.9000, -77.545
 999.0000, -77.330
 999.1000, -78.052
 999.2000, -77.293
 999.3000, -78.121
 999.4000, -77.810
 999.5000, -78.849
 999.6000, -78.007
 999.7000, -77.954
 999.8000, -76.476
 999.9000, -80.522
1000.0000, -78.206
1000.1000, -78.632
1000.2000, -77.095
1000.3000, -79.328
1000.4000, -78.430
1000.5000, -79.944
1000.6000, -78.592
1000.7000, -79.856
1000.8000, -76.504
1000.9000, -80.243
1001.0000, -78.357
1001.1000, -78.280
1001.2000, -77.505
1001.3000, -77.781
1001.4000, -80.263
1001.5000, -78.280
1001.6000, -78.650
1001.7000, -79.120
1001.8000, -77.180
1001.9000, -78.298
1002.0000, -76.934
1002.1000, -78.152
1002.2000, -80.768
1002.3000, -79.374
1002.4000, -78.257
1002.5000, -79.861
1002.6000, -77.327
1002.7000, -77.214
1002.8000, -76.433
1002.9000, -80.614
1003.0000, -78.104
1003.1000, -77.891
