70BCSV 	
// AQ6370B OPTICAL SPECTRUM ANALYZER //                 
25
"CTRWL",1300.000000
"SPAN", 800.000000
"START WL", 900.000000
"STOP WL",1700.000000
"WLFREQ", 0
"REFL",-17.2
"LSCL",10.0
"RESLN",0.500
"AVG",   1
"SMPLAUTO",      1
"SMPL",       8001
"SMPLINTVL",0.1000
"HIGH1"
"MEAS"
"LSUNT",0
"NMSKH","OFF"
"RESCOR",0
"RESPARM", 9740
"FREQPARM", 9740






"[TRACE DATA]"
 900.0000, -53.245
 900.1000, -56.468
 900.2000, -54.713
 900.3000, -55.756
 900.4000, -53.226
 900.5000, -56.535
 900.6000, -54.387
 900.7000, -54.171
 900.8000, -54.016
 900.9000, -54.470
 901.0000, -51.732
 901.1000, -54.645
 901.2000, -53.413
 901.3000, -53.281
 901.4000, -53.156
 901.5000, -53.192
 901.6000, -53.452
 901.7000, -53.536
 901.8000, -53.685
 901.9000, -52.956
 902.0000, -54.401
 902.1000, -53.856
 902.2000, -53.499
 902.3000, -52.855
 902.4000, -52.776
 902.5000, -52.057
 902.6000, -52.406
 902.7000, -53.325
 902.8000, -52.992
 902.9000, -52.927
 903.0000, -52.392
 903.1000, -52.497
 903.2000, -52.205
 903.3000, -53.467
 903.4000, -52.394
 903.5000, -52.895
 903.6000, -53.093
 903.7000, -52.497
 903.8000, -52.301
 903.9000, -52.471
 904.0000, -53.672
 904.1000, -53.257
 904.2000, -51.656
 904.3000, -53.562
 904.4000, -52.062
 904.5000, -52.560
 904.6000, -52.467
 904.7000, -52.040
 904.8000, -52.354
 904.9000, -51.901
 905.0000, -53.118
 905.1000, -52.933
 905.2000, -52.083
 905.3000, -53.087
 905.4000, -53.235
 905.5000, -52.273
 905.6000, -52.724
 905.7000, -52.742
 905.8000, -51.927
 905.9000, -51.746
 906.0000, -51.794
 906.1000, -50.712
 906.2000, -52.261
 906.3000, -51.197
 906.4000, -52.050
 906.5000, -51.849
 906.6000, -51.864
 906.7000, -51.562
 906.8000, -51.984
 906.9000, -53.045
 907.0000, -51.735
 907.1000, -52.851
 907.2000, -51.648
 907.3000, -50.737
 907.4000, -52.098
 907.5000, -51.424
 907.6000, -51.079
 907.7000, -51.156
 907.8000, -51.722
 907.9000, -52.118
 908.0000, -50.806
 908.1000, -51.960
 908.2000, -50.792
 908.3000, -51.503
 908.4000, -51.850
 908.5000, -51.317
 908.6000, -50.643
 908.7000, -51.009
 908.8000, -51.755
 908.9000, -51.948
 909.0000, -51.273
 909.1000, -51.734
 909.2000, -51.130
 909.3000, -50.324
 909.4000, -51.955
 909.5000, -50.664
 909.6000, -51.357
 909.7000, -50.961
 909.8000, -49.970
 909.9000, -52.181
 910.0000, -51.366
 910.1000, -50.738
 910.2000, -51.465
 910.3000, -51.004
 910.4000, -51.093
 910.5000, -50.996
 910.6000, -51.137
 910.7000, -50.585
 910.8000, -50.923
 910.9000, -49.286
 911.0000, -50.205
 911.1000, -49.400
 911.2000, -50.594
 911.3000, -50.318
 911.4000, -50.284
 911.5000, -51.217
 911.6000, -50.036
 911.7000, -49.897
 911.8000, -51.164
 911.9000, -50.663
 912.0000, -49.628
 912.1000, -50.250
 912.2000, -51.187
 912.3000, -50.087
 912.4000, -50.470
 912.5000, -49.433
 912.6000, -49.660
 912.7000, -50.504
 912.8000, -50.462
 912.9000, -49.216
 913.0000, -49.913
 913.1000, -49.988
 913.2000, -49.864
 913.3000, -49.836
 913.4000, -50.226
 913.5000, -49.900
 913.6000, -49.347
 913.7000, -48.927
 913.8000, -49.093
 913.9000, -49.369
 914.0000, -50.378
 914.1000, -48.968
 914.2000, -49.359
 914.3000, -49.296
 914.4000, -49.271
 914.5000, -49.689
 914.6000, -49.390
 914.7000, -49.833
 914.8000, -48.723
 914.9000, -48.889
 915.0000, -48.783
 915.1000, -49.246
 915.2000, -49.526
 915.3000, -49.135
 915.4000, -48.227
 915.5000, -49.967
 915.6000, -48.988
 915.7000, -49.145
 915.8000, -48.985
 915.9000, -49.289
 916.0000, -48.552
 916.1000, -48.746
 916.2000, -49.217
 916.3000, -48.485
 916.4000, -48.318
 916.5000, -49.103
 916.6000, -48.320
 916.7000, -48.596
 916.8000, -49.929
 916.9000, -47.887
 917.0000, -49.170
 917.1000, -49.142
 917.2000, -49.448
 917.3000, -49.089
 917.4000, -49.107
 917.5000, -48.972
 917.6000, -48.125
 917.7000, -48.773
 917.8000, -48.245
 917.9000, -48.091
 918.0000, -48.120
 918.1000, -49.303
 918.2000, -48.292
 918.3000, -48.501
 918.4000, -48.672
 918.5000, -48.688
 918.6000, -48.732
 918.7000, -48.117
 918.8000, -48.192
 918.9000, -48.401
 919.0000, -47.582
 919.1000, -48.813
 919.2000, -47.275
 919.3000, -48.353
 919.4000, -48.317
 919.5000, -48.266
 919.6000, -48.550
 919.7000, -48.079
 919.8000, -47.724
 919.9000, -48.767
 920.0000, -47.769
 920.1000, -47.483
 920.2000, -47.865
 920.3000, -47.944
 920.4000, -47.500
 920.5000, -47.548
 920.6000, -47.999
 920.7000, -47.408
 920.8000, -48.379
 920.9000, -47.701
 921.0000, -48.066
 921.1000, -47.352
 921.2000, -47.690
 921.3000, -47.642
 921.4000, -48.071
 921.5000, -47.823
 921.6000, -48.207
 921.7000, -47.479
 921.8000, -47.582
 921.9000, -47.766
 922.0000, -47.833
 922.1000, -47.743
 922.2000, -48.209
 922.3000, -48.300
 922.4000, -48.268
 922.5000, -47.999
 922.6000, -47.573
 922.7000, -47.539
 922.8000, -47.710
 922.9000, -47.639
 923.0000, -47.517
 923.1000, -47.569
 923.2000, -47.379
 923.3000, -47.048
 923.4000, -47.137
 923.5000, -47.353
 923.6000, -47.462
 923.7000, -46.845
 923.8000, -47.537
 923.9000, -47.286
 924.0000, -47.298
 924.1000, -48.137
 924.2000, -47.541
 924.3000, -47.083
 924.4000, -47.334
 924.5000, -47.347
 924.6000, -47.679
 924.7000, -47.608
 924.8000, -47.194
 924.9000, -46.773
 925.0000, -46.923
 925.1000, -46.362
 925.2000, -46.985
 925.3000, -47.374
 925.4000, -47.422
 925.5000, -46.253
 925.6000, -46.944
 925.7000, -46.726
 925.8000, -46.846
 925.9000, -46.760
 926.0000, -46.965
 926.1000, -47.132
 926.2000, -46.731
 926.3000, -46.669
 926.4000, -47.483
 926.5000, -46.669
 926.6000, -47.161
 926.7000, -47.212
 926.8000, -47.106
 926.9000, -47.104
 927.0000, -46.875
 927.1000, -46.542
 927.2000, -46.919
 927.3000, -47.279
 927.4000, -46.203
 927.5000, -47.301
 927.6000, -47.132
 927.7000, -46.712
 927.8000, -46.614
 927.9000, -47.121
 928.0000, -46.911
 928.1000, -47.001
 928.2000, -46.730
 928.3000, -46.740
 928.4000, -47.142
 928.5000, -46.814
 928.6000, -46.951
 928.7000, -46.552
 928.8000, -46.829
 928.9000, -46.475
 929.0000, -46.708
 929.1000, -46.251
 929.2000, -46.340
 929.3000, -46.247
 929.4000, -46.425
 929.5000, -46.087
 929.6000, -46.087
 929.7000, -47.123
 929.8000, -46.153
 929.9000, -46.457
 930.0000, -46.191
 930.1000, -46.600
 930.2000, -46.354
 930.3000, -46.333
 930.4000, -46.727
 930.5000, -46.482
 930.6000, -46.258
 930.7000, -46.323
 930.8000, -46.134
 930.9000, -46.426
 931.0000, -46.159
 931.1000, -45.965
 931.2000, -46.778
 931.3000, -46.325
 931.4000, -46.449
 931.5000, -46.150
 931.6000, -46.190
 931.7000, -46.474
 931.8000, -46.285
 931.9000, -45.892
 932.0000, -46.453
 932.1000, -46.486
 932.2000, -46.317
 932.3000, -46.448
 932.4000, -46.007
 932.5000, -46.713
 932.6000, -45.818
 932.7000, -46.553
 932.8000, -46.419
 932.9000, -45.887
 933.0000, -46.335
 933.1000, -45.975
 933.2000, -46.226
 933.3000, -45.720
 933.4000, -45.830
 933.5000, -46.424
 933.6000, -46.134
 933.7000, -46.200
 933.8000, -45.426
 933.9000, -45.941
 934.0000, -46.449
 934.1000, -46.150
 934.2000, -45.871
 934.3000, -45.991
 934.4000, -46.058
 934.5000, -46.061
 934.6000, -45.931
 934.7000, -46.127
 934.8000, -46.004
 934.9000, -45.898
 935.0000, -46.019
 935.1000, -46.306
 935.2000, -46.334
 935.3000, -46.064
 935.4000, -46.012
 935.5000, -46.238
 935.6000, -45.939
 935.7000, -46.722
 935.8000, -45.720
 935.9000, -46.097
 936.0000, -46.239
 936.1000, -46.215
 936.2000, -46.274
 936.3000, -45.816
 936.4000, -45.576
 936.5000, -46.117
 936.6000, -45.826
 936.7000, -45.826
 936.8000, -46.112
 936.9000, -45.629
 937.0000, -45.693
 937.1000, -45.787
 937.2000, -46.167
 937.3000, -45.996
 937.4000, -46.356
 937.5000, -45.445
 937.6000, -45.868
 937.7000, -45.322
 937.8000, -45.605
 937.9000, -46.208
 938.0000, -45.673
 938.1000, -45.658
 938.2000, -45.640
 938.3000, -45.424
 938.4000, -45.690
 938.5000, -45.813
 938.6000, -46.121
 938.7000, -45.757
 938.8000, -45.945
 938.9000, -45.843
 939.0000, -45.925
 939.1000, -45.589
 939.2000, -45.985
 939.3000, -45.261
 939.4000, -45.492
 939.5000, -45.605
 939.6000, -45.935
 939.7000, -45.756
 939.8000, -45.498
 939.9000, -45.642
 940.0000, -45.922
 940.1000, -46.082
 940.2000, -46.046
 940.3000, -45.484
 940.4000, -45.643
 940.5000, -45.868
 940.6000, -46.010
 940.7000, -46.025
 940.8000, -45.308
 940.9000, -45.146
 941.0000, -45.685
 941.1000, -45.919
 941.2000, -46.030
 941.3000, -45.622
 941.4000, -45.749
 941.5000, -45.920
 941.6000, -46.059
 941.7000, -45.762
 941.8000, -46.064
 941.9000, -45.732
 942.0000, -45.940
 942.1000, -45.769
 942.2000, -45.743
 942.3000, -45.820
 942.4000, -45.915
 942.5000, -45.366
 942.6000, -45.962
 942.7000, -45.997
 942.8000, -46.218
 942.9000, -45.654
 943.0000, -45.892
 943.1000, -45.687
 943.2000, -46.008
 943.3000, -45.976
 943.4000, -45.558
 943.5000, -45.785
 943.6000, -46.585
 943.7000, -45.450
 943.8000, -45.844
 943.9000, -45.616
 944.0000, -45.620
 944.1000, -45.872
 944.2000, -46.131
 944.3000, -45.681
 944.4000, -46.011
 944.5000, -45.927
 944.6000, -45.609
 944.7000, -45.622
 944.8000, -45.814
 944.9000, -45.936
 945.0000, -46.012
 945.1000, -45.653
 945.2000, -45.796
 945.3000, -46.133
 945.4000, -45.633
 945.5000, -45.896
 945.6000, -45.810
 945.7000, -46.001
 945.8000, -45.795
 945.9000, -45.953
 946.0000, -45.774
 946.1000, -45.845
 946.2000, -45.687
 946.3000, -45.854
 946.4000, -45.587
 946.5000, -45.669
 946.6000, -46.092
 946.7000, -45.680
 946.8000, -46.551
 946.9000, -46.165
 947.0000, -46.350
 947.1000, -46.195
 947.2000, -46.125
 947.3000, -45.711
 947.4000, -46.112
 947.5000, -45.724
 947.6000, -45.907
 947.7000, -45.724
 947.8000, -45.925
 947.9000, -45.843
 948.0000, -45.958
 948.1000, -46.263
 948.2000, -46.353
 948.3000, -45.574
 948.4000, -45.803
 948.5000, -45.861
 948.6000, -45.920
 948.7000, -45.764
 948.8000, -46.115
 948.9000, -46.236
 949.0000, -46.216
 949.1000, -45.823
 949.2000, -46.159
 949.3000, -46.049
 949.4000, -45.920
 949.5000, -45.607
 949.6000, -45.974
 949.7000, -46.062
 949.8000, -45.586
 949.9000, -45.553
 950.0000, -46.076
 950.1000, -45.843
 950.2000, -45.837
 950.3000, -45.642
 950.4000, -46.106
 950.5000, -45.602
 950.6000, -45.788
 950.7000, -46.316
 950.8000, -46.097
 950.9000, -45.727
 951.0000, -46.072
 951.1000, -45.895
 951.2000, -45.703
 951.3000, -46.040
 951.4000, -46.150
 951.5000, -46.039
 951.6000, -45.957
 951.7000, -46.051
 951.8000, -45.927
 951.9000, -46.304
 952.0000, -45.708
 952.1000, -46.090
 952.2000, -45.955
 952.3000, -46.102
 952.4000, -45.614
 952.5000, -45.950
 952.6000, -46.349
 952.7000, -45.965
 952.8000, -45.919
 952.9000, -45.844
 953.0000, -46.221
 953.1000, -46.054
 953.2000, -45.951
 953.3000, -46.169
 953.4000, -45.873
 953.5000, -45.979
 953.6000, -45.998
 953.7000, -45.997
 953.8000, -45.702
 953.9000, -45.877
 954.0000, -46.358
 954.1000, -46.334
 954.2000, -46.193
 954.3000, -46.032
 954.4000, -45.931
 954.5000, -45.870
 954.6000, -46.561
 954.7000, -45.937
 954.8000, -45.828
 954.9000, -46.000
 955.0000, -46.080
 955.1000, -46.127
 955.2000, -46.328
 955.3000, -46.008
 955.4000, -46.143
 955.5000, -45.994
 955.6000, -46.094
 955.7000, -45.904
 955.8000, -46.099
 955.9000, -45.984
 956.0000, -45.976
 956.1000, -46.413
 956.2000, -46.384
 956.3000, -46.180
 956.4000, -46.299
 956.5000, -46.147
 956.6000, -46.348
 956.7000, -45.958
 956.8000, -45.782
 956.9000, -46.291
 957.0000, -46.414
 957.1000, -46.283
 957.2000, -45.876
 957.3000, -46.077
 957.4000, -45.804
 957.5000, -46.160
 957.6000, -46.294
 957.7000, -45.857
 957.8000, -46.138
 957.9000, -46.160
 958.0000, -46.274
 958.1000, -46.055
 958.2000, -46.482
 958.3000, -46.552
 958.4000, -46.455
 958.5000, -46.200
 958.6000, -46.293
 958.7000, -46.116
 958.8000, -46.130
 958.9000, -45.740
 959.0000, -46.035
 959.1000, -46.219
 959.2000, -46.147
 959.3000, -46.300
 959.4000, -46.287
 959.5000, -46.083
 959.6000, -46.407
 959.7000, -46.066
 959.8000, -46.980
 959.9000, -45.837
 960.0000, -46.185
 960.1000, -46.149
 960.2000, -46.108
 960.3000, -46.275
 960.4000, -46.017
 960.5000, -46.145
 960.6000, -46.304
 960.7000, -46.088
 960.8000, -45.803
 960.9000, -46.422
 961.0000, -46.147
 961.1000, -45.997
 961.2000, -46.162
 961.3000, -46.276
 961.4000, -45.904
 961.5000, -45.887
 961.6000, -45.970
 961.7000, -45.925
 961.8000, -46.096
 961.9000, -46.245
 962.0000, -46.297
 962.1000, -45.520
 962.2000, -46.228
 962.3000, -46.202
 962.4000, -46.073
 962.5000, -45.808
 962.6000, -46.046
 962.7000, -46.380
 962.8000, -46.610
 962.9000, -45.773
 963.0000, -45.779
 963.1000, -46.531
 963.2000, -45.961
 963.3000, -46.357
 963.4000, -46.296
 963.5000, -45.976
 963.6000, -45.941
 963.7000, -46.361
 963.8000, -45.740
 963.9000, -45.939
 964.0000, -46.527
 964.1000, -46.238
 964.2000, -46.065
 964.3000, -46.220
 964.4000, -46.398
 964.5000, -45.881
 964.6000, -45.911
 964.7000, -46.730
 964.8000, -45.944
 964.9000, -46.148
 965.0000, -46.171
 965.1000, -46.329
 965.2000, -46.552
 965.3000, -46.111
 965.4000, -46.419
 965.5000, -46.362
 965.6000, -46.503
 965.7000, -46.852
 965.8000, -46.352
 965.9000, -46.108
 966.0000, -46.206
 966.1000, -46.168
 966.2000, -46.203
 966.3000, -45.997
 966.4000, -46.243
 966.5000, -46.509
 966.6000, -46.646
 966.7000, -46.537
 966.8000, -46.546
 966.9000, -46.728
 967.0000, -46.146
 967.1000, -46.041
 967.2000, -46.343
 967.3000, -46.425
 967.4000, -46.442
 967.5000, -46.277
 967.6000, -46.541
 967.7000, -46.546
 967.8000, -46.418
 967.9000, -46.426
 968.0000, -46.440
 968.1000, -46.581
 968.2000, -46.588
 968.3000, -46.239
 968.4000, -46.286
 968.5000, -46.079
 968.6000, -46.413
 968.7000, -46.268
 968.8000, -46.649
 968.9000, -46.495
 969.0000, -46.387
 969.1000, -46.187
 969.2000, -46.642
 969.3000, -46.732
 969.4000, -46.608
 969.5000, -46.352
 969.6000, -46.593
 969.7000, -46.600
 969.8000, -46.301
 969.9000, -46.434
 970.0000, -46.549
 970.1000, -46.621
 970.2000, -46.788
 970.3000, -46.222
 970.4000, -46.376
 970.5000, -46.410
 970.6000, -46.534
 970.7000, -47.165
 970.8000, -46.739
 970.9000, -47.006
 971.0000, -46.714
 971.1000, -46.623
 971.2000, -46.904
 971.3000, -46.695
 971.4000, -46.505
 971.5000, -46.528
 971.6000, -46.651
 971.7000, -46.311
 971.8000, -46.518
 971.9000, -46.803
 972.0000, -46.658
 972.1000, -46.750
 972.2000, -46.881
 972.3000, -46.942
 972.4000, -46.807
 972.5000, -47.031
 972.6000, -47.294
 972.7000, -46.786
 972.8000, -46.753
 972.9000, -46.881
 973.0000, -46.945
 973.1000, -47.254
 973.2000, -46.753
 973.3000, -47.015
 973.4000, -47.361
 973.5000, -46.974
 973.6000, -47.055
 973.7000, -46.942
 973.8000, -46.928
 973.9000, -47.163
 974.0000, -46.936
 974.1000, -47.360
 974.2000, -47.368
 974.3000, -47.171
 974.4000, -47.056
 974.5000, -47.232
 974.6000, -47.307
 974.7000, -47.457
 974.8000, -47.078
 974.9000, -47.131
 975.0000, -47.486
 975.1000, -47.364
 975.2000, -47.380
 975.3000, -47.581
 975.4000, -47.492
 975.5000, -47.356
 975.6000, -47.598
 975.7000, -47.509
 975.8000, -47.665
 975.9000, -47.636
 976.0000, -48.068
 976.1000, -47.771
 976.2000, -48.063
 976.3000, -48.286
 976.4000, -48.068
 976.5000, -47.914
 976.6000, -48.321
 976.7000, -47.778
 976.8000, -47.940
 976.9000, -47.970
 977.0000, -48.269
 977.1000, -48.668
 977.2000, -48.193
 977.3000, -48.427
 977.4000, -48.504
 977.5000, -48.501
 977.6000, -48.585
 977.7000, -48.634
 977.8000, -48.299
 977.9000, -48.655
 978.0000, -48.684
 978.1000, -49.008
 978.2000, -48.840
 978.3000, -49.079
 978.4000, -48.629
 978.5000, -48.678
 978.6000, -48.813
 978.7000, -48.848
 978.8000, -49.003
 978.9000, -49.056
 979.0000, -48.883
 979.1000, -48.666
 979.2000, -48.848
 979.3000, -49.228
 979.4000, -49.053
 979.5000, -49.062
 979.6000, -49.021
 979.7000, -49.084
 979.8000, -49.398
 979.9000, -49.151
 980.0000, -49.348
 980.1000, -49.297
 980.2000, -49.202
 980.3000, -49.385
 980.4000, -49.165
 980.5000, -49.822
 980.6000, -49.389
 980.7000, -49.176
 980.8000, -49.441
 980.9000, -49.386
 981.0000, -49.395
 981.1000, -49.532
 981.2000, -49.560
 981.3000, -49.167
 981.4000, -49.800
 981.5000, -49.055
 981.6000, -49.452
 981.7000, -49.287
 981.8000, -49.122
 981.9000, -49.014
 982.0000, -49.349
 982.1000, -49.688
 982.2000, -49.310
 982.3000, -49.402
 982.4000, -49.426
 982.5000, -49.381
 982.6000, -49.464
 982.7000, -49.529
 982.8000, -49.500
 982.9000, -49.350
 983.0000, -49.348
 983.1000, -49.302
 983.2000, -49.520
 983.3000, -49.371
 983.4000, -49.408
 983.5000, -49.566
 983.6000, -49.203
 983.7000, -49.399
 983.8000, -49.125
 983.9000, -49.335
 984.0000, -49.441
 984.1000, -49.229
 984.2000, -49.050
 984.3000, -49.232
 984.4000, -49.105
 984.5000, -49.171
 984.6000, -48.875
 984.7000, -49.233
 984.8000, -48.994
 984.9000, -49.060
 985.0000, -49.530
 985.1000, -49.592
 985.2000, -49.672
 985.3000, -49.500
 985.4000, -49.406
 985.5000, -49.325
 985.6000, -49.363
 985.7000, -49.421
 985.8000, -49.218
 985.9000, -49.548
 986.0000, -49.764
 986.1000, -49.627
 986.2000, -49.959
 986.3000, -49.725
 986.4000, -49.882
 986.5000, -49.948
 986.6000, -50.083
 986.7000, -49.595
 986.8000, -49.962
 986.9000, -50.024
 987.0000, -50.041
 987.1000, -49.963
 987.2000, -49.949
 987.3000, -50.006
 987.4000, -50.065
 987.5000, -50.119
 987.6000, -50.393
 987.7000, -50.436
 987.8000, -50.026
 987.9000, -50.443
 988.0000, -50.378
 988.1000, -50.412
 988.2000, -50.103
 988.3000, -50.301
 988.4000, -50.165
 988.5000, -50.753
 988.6000, -50.421
 988.7000, -50.231
 988.8000, -50.348
 988.9000, -50.358
 989.0000, -50.322
 989.1000, -50.599
 989.2000, -50.867
 989.3000, -50.564
 989.4000, -50.560
 989.5000, -50.593
 989.6000, -50.568
 989.7000, -50.658
 989.8000, -51.051
 989.9000, -50.592
 990.0000, -50.657
 990.1000, -50.848
 990.2000, -50.478
 990.3000, -50.474
 990.4000, -50.823
 990.5000, -50.555
 990.6000, -50.637
 990.7000, -50.938
 990.8000, -50.784
 990.9000, -50.732
 991.0000, -51.117
 991.1000, -50.966
 991.2000, -50.946
 991.3000, -51.086
 991.4000, -50.673
 991.5000, -50.849
 991.6000, -50.794
 991.7000, -51.052
 991.8000, -50.866
 991.9000, -50.910
 992.0000, -50.687
 992.1000, -50.894
 992.2000, -50.615
 992.3000, -50.467
 992.4000, -50.785
 992.5000, -50.716
 992.6000, -50.808
 992.7000, -51.005
 992.8000, -51.218
 992.9000, -50.757
 993.0000, -51.104
 993.1000, -50.882
 993.2000, -50.989
 993.3000, -51.235
 993.4000, -50.679
 993.5000, -51.004
 993.6000, -50.790
 993.7000, -51.128
 993.8000, -50.715
 993.9000, -50.925
 994.0000, -50.891
 994.1000, -50.798
 994.2000, -50.528
 994.3000, -50.604
 994.4000, -50.957
 994.5000, -51.019
 994.6000, -50.806
 994.7000, -51.059
 994.8000, -50.577
 994.9000, -50.861
 995.0000, -50.892
 995.1000, -50.807
 995.2000, -50.781
 995.3000, -51.134
 995.4000, -50.854
 995.5000, -50.899
 995.6000, -51.077
 995.7000, -51.143
 995.8000, -51.139
 995.9000, -51.325
 996.0000, -51.422
 996.1000, -51.364
 996.2000, -51.446
 996.3000, -51.110
 996.4000, -51.299
 996.5000, -51.329
 996.6000, -51.256
 996.7000, -51.217
 996.8000, -51.346
 996.9000, -51.509
 997.0000, -51.518
 997.1000, -51.384
 997.2000, -51.706
 997.3000, -51.552
 997.4000, -51.495
 997.5000, -51.550
 997.6000, -51.517
 997.7000, -51.656
 997.8000, -51.633
 997.9000, -51.783
 998.0000, -52.126
 998.1000, -52.142
 998.2000, -51.959
 998.3000, -52.157
 998.4000, -52.214
 998.5000, -52.201
 998.6000, -52.097
 998.7000, -52.436
 998.8000, -52.344
 998.9000, -52.237
 999.0000, -52.370
 999.1000, -52.359
 999.2000, -52.495
 999.3000, -52.631
 999.4000, -52.642
 999.5000, -52.724
 999.6000, -52.635
 999.7000, -52.602
 999.8000, -52.582
 999.9000, -52.788
1000.0000, -52.704
1000.1000, -52.735
1000.2000, -52.871
1000.3000, -53.090
1000.4000, -52.666
1000.5000, -52.749
1000.6000, -52.864
1000.7000, -52.659
1000.8000, -53.031
1000.9000, -52.772
1001.0000, -52.896
1001.1000, -52.780
1001.2000, -52.678
1001.3000, -52.592
1001.4000, -52.902
1001.5000, -52.836
1001.6000, -52.852
1001.7000, -52.694
1001.8000, -52.605
1001.9000, -52.543
1002.0000, -52.468
1002.1000, -52.495
1002.2000, -52.575
1002.3000, -52.560
1002.4000, -52.382
1002.5000, -52.461
1002.6000, -52.372
1002.7000, -52.410
1002.8000, -52.697
1002.9000, -52.285
1003.0000, -52.387
1003.1000, -52.192
