70BCSV 	
// AQ6370B OPTICAL SPECTRUM ANALYZER //                 
25
"CTRWL",1300.000000
"SPAN", 800.000000
"START WL", 900.000000
"STOP WL",1700.000000
"WLFREQ", 0
"REFL",-17.2
"LSCL",10.0
"RESLN",0.500
"AVG",   1
"SMPLAUTO",      1
"SMPL",       8001
"SMPLINTVL",0.1000
"HIGH1"
"MEAS"
"LSUNT",0
"NMSKH","OFF"
"RESCOR",0
"RESPARM", 9740
"FREQPARM", 9740






"[TRACE DATA]"
 900.0000,-210.000
 900.1000,-210.000
 900.2000, -70.790
 900.3000, -80.184
 900.4000, -74.129
 900.5000,-210.000
 900.6000, -75.631
 900.7000, -71.968
 900.8000, -75.926
 900.9000, -73.984
 901.0000, -72.540
 901.1000, -69.616
 901.2000, -75.028
 901.3000,-210.000
 901.4000, -75.751
 901.5000, -77.883
 901.6000, -74.884
 901.7000, -83.832
 901.8000, -74.103
 901.9000, -74.945
 902.0000, -74.709
 902.1000, -74.570
 902.2000, -76.696
 902.3000, -75.087
 902.4000, -77.020
 902.5000, -72.114
 902.6000, -75.126
 902.7000, -80.028
 902.8000, -74.345
 902.9000, -73.670
 903.0000, -91.171
 903.1000, -78.956
 903.2000, -74.225
 903.3000, -73.053
 903.4000, -75.076
 903.5000, -77.329
 903.6000, -76.732
 903.7000, -74.825
 903.8000, -73.374
 903.9000, -72.298
 904.0000, -78.281
 904.1000, -85.372
 904.2000, -89.099
 904.3000,-210.000
 904.4000, -72.498
 904.5000, -78.245
 904.6000, -72.767
 904.7000, -73.685
 904.8000, -75.094
 904.9000,-210.000
 905.0000, -72.897
 905.1000, -72.964
 905.2000, -74.790
 905.3000, -76.283
 905.4000, -79.210
 905.5000, -92.772
 905.6000, -72.155
 905.7000,-210.000
 905.8000, -76.266
 905.9000, -81.764
 906.0000, -70.726
 906.1000, -75.009
 906.2000, -83.468
 906.3000, -73.670
 906.4000, -74.412
 906.5000,-210.000
 906.6000, -77.384
 906.7000, -71.670
 906.8000, -80.599
 906.9000, -75.142
 907.0000, -73.510
 907.1000, -98.829
 907.2000, -76.973
 907.3000,-210.000
 907.4000, -73.221
 907.5000, -73.123
 907.6000, -74.991
 907.7000, -88.837
 907.8000, -77.565
 907.9000, -75.267
 908.0000, -83.076
 908.1000, -70.241
 908.2000, -78.819
 908.3000, -85.268
 908.4000, -72.508
 908.5000,-210.000
 908.6000, -74.593
 908.7000, -74.729
 908.8000, -77.124
 908.9000, -81.898
 909.0000, -76.906
 909.1000, -76.353
 909.2000, -81.012
 909.3000, -73.763
 909.4000, -74.701
 909.5000, -74.815
 909.6000, -76.711
 909.7000, -76.050
 909.8000, -74.740
 909.9000, -90.590
 910.0000,-210.000
 910.1000, -82.933
 910.2000, -74.012
 910.3000, -73.046
 910.4000, -75.022
 910.5000, -74.464
 910.6000,-210.000
 910.7000, -79.628
 910.8000, -77.655
 910.9000, -82.064
 911.0000, -78.938
 911.1000, -77.407
 911.2000, -76.229
 911.3000,-210.000
 911.4000, -75.854
 911.5000, -78.817
 911.6000, -79.943
 911.7000, -73.638
 911.8000, -76.155
 911.9000, -76.508
 912.0000, -75.273
 912.1000, -80.484
 912.2000, -75.771
 912.3000, -81.998
 912.4000, -73.824
 912.5000, -79.131
 912.6000,-210.000
 912.7000, -74.135
 912.8000, -80.277
 912.9000, -85.419
 913.0000, -71.956
 913.1000, -75.257
 913.2000, -75.433
 913.3000,-210.000
 913.4000, -80.421
 913.5000, -72.472
 913.6000, -83.570
 913.7000, -76.353
 913.8000,-210.000
 913.9000, -73.901
 914.0000, -85.244
 914.1000, -75.560
 914.2000, -76.279
 914.3000,-210.000
 914.4000, -71.947
 914.5000, -80.353
 914.6000, -75.457
 914.7000, -75.064
 914.8000, -78.090
 914.9000, -76.511
 915.0000, -77.899
 915.1000, -79.376
 915.2000, -76.157
 915.3000,-210.000
 915.4000, -74.952
 915.5000, -75.961
 915.6000, -74.311
 915.7000, -78.654
 915.8000,-210.000
 915.9000, -74.204
 916.0000, -83.409
 916.1000, -74.547
 916.2000, -81.548
 916.3000, -81.234
 916.4000, -84.200
 916.5000, -86.341
 916.6000, -76.739
 916.7000, -82.344
 916.8000, -78.440
 916.9000, -76.160
 917.0000, -81.821
 917.1000, -83.894
 917.2000, -79.248
 917.3000, -73.924
 917.4000, -76.167
 917.5000,-210.000
 917.6000, -74.044
 917.7000,-210.000
 917.8000, -73.742
 917.9000, -75.279
 918.0000, -74.443
 918.1000, -85.218
 918.2000, -75.328
 918.3000,-210.000
 918.4000, -79.155
 918.5000, -75.851
 918.6000, -79.395
 918.7000,-210.000
 918.8000, -75.601
 918.9000,-210.000
 919.0000,-210.000
 919.1000, -77.932
 919.2000, -76.650
 919.3000, -74.461
 919.4000, -79.010
 919.5000, -76.872
 919.6000, -84.153
 919.7000,-210.000
 919.8000, -72.331
 919.9000, -76.593
 920.0000,-210.000
 920.1000,-210.000
 920.2000, -77.599
 920.3000,-210.000
 920.4000, -76.556
 920.5000, -75.917
 920.6000, -83.658
 920.7000, -77.607
 920.8000, -75.749
 920.9000, -78.735
 921.0000,-210.000
 921.1000, -79.018
 921.2000, -74.946
 921.3000, -76.071
 921.4000, -87.972
 921.5000, -78.221
 921.6000,-210.000
 921.7000, -74.945
 921.8000,-210.000
 921.9000,-210.000
 922.0000, -78.755
 922.1000, -74.271
 922.2000, -83.968
 922.3000,-210.000
 922.4000,-210.000
 922.5000, -86.526
 922.6000, -78.274
 922.7000, -74.402
 922.8000,-210.000
 922.9000, -76.269
 923.0000,-210.000
 923.1000, -77.392
 923.2000, -75.143
 923.3000, -79.956
 923.4000, -85.463
 923.5000, -76.766
 923.6000, -77.304
 923.7000,-210.000
 923.8000, -79.228
 923.9000, -77.689
 924.0000, -77.215
 924.1000, -86.593
 924.2000,-210.000
 924.3000, -77.120
 924.4000, -84.940
 924.5000,-210.000
 924.6000, -74.903
 924.7000,-210.000
 924.8000,-210.000
 924.9000, -73.807
 925.0000,-210.000
 925.1000, -80.837
 925.2000, -77.999
 925.3000, -73.060
 925.4000,-210.000
 925.5000,-210.000
 925.6000, -82.427
 925.7000, -80.320
 925.8000, -74.597
 925.9000,-210.000
 926.0000,-210.000
 926.1000,-210.000
 926.2000, -76.748
 926.3000, -78.167
 926.4000, -75.488
 926.5000, -79.815
 926.6000, -80.549
 926.7000,-210.000
 926.8000, -78.065
 926.9000, -78.407
 927.0000, -87.468
 927.1000, -80.044
 927.2000, -82.640
 927.3000, -76.972
 927.4000, -77.355
 927.5000, -81.425
 927.6000, -75.422
 927.7000,-210.000
 927.8000,-210.000
 927.9000, -76.523
 928.0000, -81.337
 928.1000, -77.654
 928.2000, -83.225
 928.3000, -88.070
 928.4000, -84.631
 928.5000, -77.666
 928.6000, -79.221
 928.7000, -80.584
 928.8000, -77.297
 928.9000, -84.211
 929.0000, -76.936
 929.1000, -76.707
 929.2000, -80.896
 929.3000, -94.442
 929.4000, -77.782
 929.5000, -87.647
 929.6000, -75.772
 929.7000,-210.000
 929.8000, -82.338
 929.9000, -82.139
 930.0000, -79.119
 930.1000, -85.139
 930.2000, -86.111
 930.3000,-210.000
 930.4000, -76.583
 930.5000, -76.252
 930.6000, -78.081
 930.7000, -89.933
 930.8000,-210.000
 930.9000, -78.401
 931.0000, -79.417
 931.1000, -83.488
 931.2000, -80.382
 931.3000, -80.148
 931.4000,-210.000
 931.5000, -77.559
 931.6000, -80.772
 931.7000, -78.124
 931.8000,-210.000
 931.9000, -86.240
 932.0000, -77.050
 932.1000,-210.000
 932.2000, -80.817
 932.3000, -87.330
 932.4000, -77.886
 932.5000, -77.511
 932.6000, -85.494
 932.7000, -79.707
 932.8000, -84.098
 932.9000, -79.200
 933.0000, -79.010
 933.1000, -79.570
 933.2000, -80.903
 933.3000,-210.000
 933.4000, -78.645
 933.5000, -80.052
 933.6000, -77.704
 933.7000,-210.000
 933.8000, -87.055
 933.9000, -79.821
 934.0000, -82.950
 934.1000, -79.280
 934.2000, -80.860
 934.3000, -77.959
 934.4000, -78.864
 934.5000,-210.000
 934.6000, -79.417
 934.7000, -78.964
 934.8000, -78.337
 934.9000, -82.527
 935.0000, -82.898
 935.1000, -85.317
 935.2000, -81.094
 935.3000, -80.333
 935.4000, -84.754
 935.5000, -74.448
 935.6000,-210.000
 935.7000, -76.141
 935.8000, -79.938
 935.9000, -83.421
 936.0000, -82.963
 936.1000, -84.477
 936.2000, -81.277
 936.3000, -79.727
 936.4000, -79.712
 936.5000,-210.000
 936.6000, -78.433
 936.7000, -77.107
 936.8000, -90.373
 936.9000, -81.967
 937.0000, -75.325
 937.1000, -87.605
 937.2000, -75.436
 937.3000, -78.089
 937.4000, -88.639
 937.5000, -79.361
 937.6000, -76.717
 937.7000,-105.112
 937.8000, -77.304
 937.9000,-210.000
 938.0000, -75.718
 938.1000, -80.237
 938.2000, -76.403
 938.3000, -76.350
 938.4000, -75.834
 938.5000, -77.086
 938.6000, -76.295
 938.7000, -74.348
 938.8000, -76.163
 938.9000, -75.289
 939.0000, -75.316
 939.1000, -75.277
 939.2000, -77.043
 939.3000, -76.622
 939.4000, -76.470
 939.5000, -91.034
 939.6000,-210.000
 939.7000, -77.840
 939.8000, -76.460
 939.9000,-210.000
 940.0000, -80.459
 940.1000, -79.100
 940.2000, -76.616
 940.3000, -78.246
 940.4000,-210.000
 940.5000,-210.000
 940.6000, -78.996
 940.7000, -75.761
 940.8000,-210.000
 940.9000, -77.936
 941.0000,-210.000
 941.1000, -81.442
 941.2000, -75.244
 941.3000,-210.000
 941.4000, -76.312
 941.5000, -76.514
 941.6000, -78.565
 941.7000,-210.000
 941.8000, -80.129
 941.9000, -74.596
 942.0000,-210.000
 942.1000, -82.892
 942.2000, -84.973
 942.3000,-210.000
 942.4000, -77.175
 942.5000, -82.180
 942.6000, -78.593
 942.7000, -83.526
 942.8000, -76.030
 942.9000, -79.999
 943.0000, -87.537
 943.1000, -79.145
 943.2000,-210.000
 943.3000,-210.000
 943.4000, -77.489
 943.5000,-210.000
 943.6000, -83.038
 943.7000, -77.053
 943.8000, -85.118
 943.9000, -80.741
 944.0000, -78.696
 944.1000, -78.410
 944.2000, -82.314
 944.3000, -79.004
 944.4000, -82.334
 944.5000, -76.635
 944.6000, -89.151
 944.7000, -78.009
 944.8000, -76.096
 944.9000, -85.521
 945.0000, -80.952
 945.1000, -74.929
 945.2000, -76.419
 945.3000, -79.817
 945.4000, -78.872
 945.5000, -73.689
 945.6000, -73.348
 945.7000, -75.043
 945.8000, -73.579
 945.9000, -72.762
 946.0000, -73.777
 946.1000, -72.758
 946.2000, -72.441
 946.3000, -72.538
 946.4000, -72.546
 946.5000, -72.866
 946.6000, -74.708
 946.7000, -74.337
 946.8000, -75.509
 946.9000, -75.308
 947.0000, -78.433
 947.1000, -76.230
 947.2000, -76.756
 947.3000, -79.306
 947.4000, -79.238
 947.5000, -80.712
 947.6000, -79.910
 947.7000, -80.389
 947.8000, -79.576
 947.9000, -79.495
 948.0000, -81.307
 948.1000, -79.202
 948.2000,-210.000
 948.3000, -77.885
 948.4000, -81.106
 948.5000, -86.139
 948.6000, -80.019
 948.7000, -79.635
 948.8000, -79.094
 948.9000, -86.680
 949.0000, -80.596
 949.1000, -80.758
 949.2000, -77.789
 949.3000, -83.596
 949.4000, -82.859
 949.5000,-210.000
 949.6000, -78.254
 949.7000, -82.343
 949.8000, -81.514
 949.9000, -84.262
 950.0000, -80.313
 950.1000, -78.505
 950.2000, -81.595
 950.3000, -78.114
 950.4000, -85.906
 950.5000, -87.042
 950.6000,-210.000
 950.7000,-210.000
 950.8000, -79.655
 950.9000, -80.179
 951.0000, -83.208
 951.1000, -79.684
 951.2000,-210.000
 951.3000, -79.189
 951.4000, -76.431
 951.5000, -86.824
 951.6000,-210.000
 951.7000, -82.419
 951.8000, -81.207
 951.9000, -81.005
 952.0000, -85.055
 952.1000, -80.501
 952.2000, -83.362
 952.3000, -77.628
 952.4000, -78.261
 952.5000, -85.131
 952.6000,-210.000
 952.7000, -80.292
 952.8000, -79.627
 952.9000,-210.000
 953.0000, -84.120
 953.1000,-210.000
 953.2000, -77.075
 953.3000, -81.058
 953.4000,-210.000
 953.5000, -77.088
 953.6000,-210.000
 953.7000,-210.000
 953.8000, -78.504
 953.9000, -81.404
 954.0000, -83.451
 954.1000, -82.187
 954.2000, -87.815
 954.3000, -76.777
 954.4000,-210.000
 954.5000, -77.937
 954.6000,-210.000
 954.7000,-210.000
 954.8000, -84.102
 954.9000, -78.000
 955.0000, -77.631
 955.1000,-210.000
 955.2000, -78.733
 955.3000, -80.037
 955.4000, -81.792
 955.5000,-210.000
 955.6000, -79.607
 955.7000, -80.302
 955.8000,-210.000
 955.9000, -80.797
 956.0000, -83.181
 956.1000, -81.306
 956.2000,-210.000
 956.3000, -77.852
 956.4000, -79.543
 956.5000, -88.115
 956.6000,-210.000
 956.7000, -75.700
 956.8000,-210.000
 956.9000, -77.166
 957.0000,-210.000
 957.1000, -75.663
 957.2000,-210.000
 957.3000, -96.091
 957.4000,-210.000
 957.5000, -81.604
 957.6000, -79.149
 957.7000,-210.000
 957.8000, -82.830
 957.9000, -79.870
 958.0000,-210.000
 958.1000, -76.321
 958.2000, -79.463
 958.3000,-210.000
 958.4000,-210.000
 958.5000,-210.000
 958.6000, -77.162
 958.7000, -87.975
 958.8000, -80.197
 958.9000, -85.657
 959.0000,-210.000
 959.1000,-210.000
 959.2000, -76.422
 959.3000,-210.000
 959.4000, -80.313
 959.5000, -86.139
 959.6000,-210.000
 959.7000, -75.430
 959.8000, -83.653
 959.9000, -79.531
 960.0000, -80.889
 960.1000, -96.229
 960.2000, -81.524
 960.3000,-210.000
 960.4000, -77.844
 960.5000, -82.768
 960.6000, -87.411
 960.7000, -77.477
 960.8000,-210.000
 960.9000, -87.261
 961.0000,-210.000
 961.1000, -82.432
 961.2000,-210.000
 961.3000, -83.216
 961.4000,-210.000
 961.5000,-210.000
 961.6000, -77.580
 961.7000, -79.119
 961.8000, -86.286
 961.9000, -81.410
 962.0000, -83.047
 962.1000, -81.596
 962.2000, -77.121
 962.3000,-210.000
 962.4000, -81.958
 962.5000, -86.568
 962.6000, -80.758
 962.7000, -80.303
 962.8000,-210.000
 962.9000, -79.955
 963.0000, -76.832
 963.1000,-210.000
 963.2000, -81.361
 963.3000,-210.000
 963.4000, -77.902
 963.5000, -82.611
 963.6000,-210.000
 963.7000,-210.000
 963.8000, -82.054
 963.9000, -80.728
 964.0000,-105.550
 964.1000, -83.790
 964.2000, -84.308
 964.3000, -84.170
 964.4000,-210.000
 964.5000, -82.714
 964.6000, -77.998
 964.7000,-210.000
 964.8000, -96.157
 964.9000, -81.185
 965.0000, -86.081
 965.1000, -86.716
 965.2000, -81.683
 965.3000, -79.748
 965.4000,-210.000
 965.5000, -82.447
 965.6000, -83.429
 965.7000, -82.582
 965.8000, -97.179
 965.9000, -80.967
 966.0000,-210.000
 966.1000, -82.334
 966.2000,-210.000
 966.3000, -83.096
 966.4000, -77.283
 966.5000, -87.077
 966.6000, -79.513
 966.7000,-210.000
 966.8000, -80.694
 966.9000, -78.615
 967.0000,-210.000
 967.1000,-210.000
 967.2000, -85.512
 967.3000, -80.831
 967.4000, -81.564
 967.5000, -80.094
 967.6000, -89.013
 967.7000, -83.140
 967.8000,-210.000
 967.9000, -79.068
 968.0000, -81.465
 968.1000, -89.448
 968.2000, -82.140
 968.3000,-210.000
 968.4000, -80.342
 968.5000, -78.643
 968.6000,-210.000
 968.7000, -82.506
 968.8000, -77.308
 968.9000,-210.000
 969.0000,-210.000
 969.1000, -80.093
 969.2000,-210.000
 969.3000, -83.788
 969.4000, -92.455
 969.5000,-210.000
 969.6000, -79.975
 969.7000, -88.620
 969.8000, -77.687
 969.9000,-210.000
 970.0000,-210.000
 970.1000, -81.576
 970.2000, -76.937
 970.3000, -80.854
 970.4000,-210.000
 970.5000, -79.105
 970.6000, -89.508
 970.7000, -78.277
 970.8000, -80.341
 970.9000,-210.000
 971.0000,-210.000
 971.1000,-210.000
 971.2000, -77.440
 971.3000, -81.388
 971.4000, -83.642
 971.5000,-210.000
 971.6000, -78.611
 971.7000,-210.000
 971.8000, -82.234
 971.9000, -78.416
 972.0000, -97.790
 972.1000, -87.158
 972.2000, -87.807
 972.3000, -79.925
 972.4000,-210.000
 972.5000,-210.000
 972.6000, -87.795
 972.7000, -80.122
 972.8000, -85.262
 972.9000, -83.144
 973.0000, -91.023
 973.1000, -80.282
 973.2000, -79.300
 973.3000,-210.000
 973.4000, -80.840
 973.5000, -79.618
 973.6000,-210.000
 973.7000, -85.940
 973.8000, -81.802
 973.9000, -81.900
 974.0000, -81.668
 974.1000,-210.000
 974.2000, -78.286
 974.3000, -84.443
 974.4000, -90.588
 974.5000,-210.000
 974.6000, -85.075
 974.7000, -83.537
 974.8000, -83.026
 974.9000,-210.000
 975.0000, -79.102
 975.1000, -84.324
 975.2000,-210.000
 975.3000,-210.000
 975.4000, -82.872
 975.5000, -82.288
 975.6000, -83.127
 975.7000, -90.700
 975.8000,-210.000
 975.9000, -84.010
 976.0000, -82.160
 976.1000, -78.264
 976.2000, -87.281
 976.3000, -83.203
 976.4000, -85.912
 976.5000,-210.000
 976.6000,-210.000
 976.7000, -84.049
 976.8000,-210.000
 976.9000, -80.403
 977.0000,-210.000
 977.1000,-210.000
 977.2000, -78.427
 977.3000, -84.330
 977.4000, -86.239
 977.5000, -82.835
 977.6000,-210.000
 977.7000, -81.379
 977.8000, -84.869
 977.9000, -79.114
 978.0000,-210.000
 978.1000, -85.068
 978.2000, -93.427
 978.3000, -88.823
 978.4000, -82.382
 978.5000, -84.085
 978.6000, -83.206
 978.7000, -83.745
 978.8000, -82.071
 978.9000, -84.568
 979.0000, -81.414
 979.1000,-210.000
 979.2000, -82.523
 979.3000, -85.913
 979.4000, -84.906
 979.5000, -83.463
 979.6000, -81.154
 979.7000,-210.000
 979.8000, -80.382
 979.9000, -84.148
 980.0000, -83.591
 980.1000,-210.000
 980.2000, -79.965
 980.3000, -83.261
 980.4000, -79.951
 980.5000, -77.942
 980.6000, -77.266
 980.7000, -82.677
 980.8000,-210.000
 980.9000,-210.000
 981.0000, -79.751
 981.1000, -86.680
 981.2000,-105.297
 981.3000, -81.040
 981.4000, -79.997
 981.5000, -82.212
 981.6000, -83.681
 981.7000,-210.000
 981.8000,-112.848
 981.9000, -85.342
 982.0000, -80.840
 982.1000, -79.880
 982.2000, -80.015
 982.3000, -80.147
 982.4000, -86.010
 982.5000, -80.389
 982.6000,-210.000
 982.7000, -83.254
 982.8000,-210.000
 982.9000, -82.205
 983.0000, -81.556
 983.1000, -82.426
 983.2000,-210.000
 983.3000, -79.247
 983.4000,-210.000
 983.5000, -81.715
 983.6000, -79.144
 983.7000,-210.000
 983.8000, -77.289
 983.9000,-210.000
 984.0000, -79.603
 984.1000, -81.024
 984.2000, -80.067
 984.3000,-210.000
 984.4000, -83.167
 984.5000, -80.091
 984.6000,-210.000
 984.7000, -86.736
 984.8000, -83.814
 984.9000, -83.161
 985.0000, -88.299
 985.1000, -82.329
 985.2000, -84.980
 985.3000, -84.665
 985.4000, -79.470
 985.5000, -81.907
 985.6000, -87.808
 985.7000,-210.000
 985.8000, -81.079
 985.9000, -87.811
 986.0000, -78.597
 986.1000, -82.724
 986.2000, -83.997
 986.3000, -82.335
 986.4000,-210.000
 986.5000, -87.727
 986.6000, -83.208
 986.7000, -81.376
 986.8000, -76.728
 986.9000,-210.000
 987.0000, -91.509
 987.1000,-210.000
 987.2000,-210.000
 987.3000, -78.000
 987.4000, -90.754
 987.5000, -82.057
 987.6000,-210.000
 987.7000,-210.000
 987.8000, -82.424
 987.9000, -76.961
 988.0000, -84.051
 988.1000,-210.000
 988.2000, -78.582
 988.3000, -83.745
 988.4000, -84.114
 988.5000, -81.909
 988.6000,-210.000
 988.7000,-210.000
 988.8000, -78.772
 988.9000, -78.558
 989.0000, -86.480
 989.1000,-210.000
 989.2000, -77.680
 989.3000, -79.755
 989.4000,-210.000
 989.5000, -84.416
 989.6000, -87.664
 989.7000, -86.760
 989.8000, -84.039
 989.9000, -79.552
 990.0000,-210.000
 990.1000,-210.000
 990.2000, -78.435
 990.3000,-210.000
 990.4000, -80.678
 990.5000,-210.000
 990.6000, -79.916
 990.7000,-210.000
 990.8000, -80.302
 990.9000,-210.000
 991.0000, -83.180
 991.1000, -93.857
 991.2000, -80.856
 991.3000, -94.875
 991.4000, -82.074
 991.5000, -81.664
 991.6000,-210.000
 991.7000, -82.660
 991.8000, -84.926
 991.9000,-210.000
 992.0000, -79.597
 992.1000, -81.191
 992.2000, -86.374
 992.3000, -83.530
 992.4000, -84.390
 992.5000, -81.840
 992.6000, -80.618
 992.7000, -82.494
 992.8000, -82.157
 992.9000, -81.157
 993.0000, -81.335
 993.1000, -86.418
 993.2000, -84.234
 993.3000, -79.741
 993.4000, -83.926
 993.5000, -84.592
 993.6000, -81.714
 993.7000,-210.000
 993.8000, -80.800
 993.9000,-210.000
 994.0000,-210.000
 994.1000, -84.028
 994.2000, -84.458
 994.3000, -80.944
 994.4000, -82.439
 994.5000, -86.298
 994.6000, -86.010
 994.7000, -84.204
 994.8000, -83.708
 994.9000, -79.608
 995.0000,-210.000
 995.1000, -78.682
 995.2000, -81.726
 995.3000, -86.821
 995.4000, -82.952
 995.5000, -80.938
 995.6000, -86.272
 995.7000, -95.472
 995.8000, -80.672
 995.9000, -84.730
 996.0000, -80.132
 996.1000,-210.000
 996.2000, -93.610
 996.3000, -82.710
 996.4000, -87.053
 996.5000, -83.798
 996.6000, -81.901
 996.7000, -88.384
 996.8000, -84.196
 996.9000, -83.285
 997.0000, -80.856
 997.1000,-210.000
 997.2000, -83.369
 997.3000, -84.167
 997.4000, -81.899
 997.5000, -84.476
 997.6000, -81.918
 997.7000, -84.827
 997.8000, -85.358
 997.9000, -79.486
 998.0000,-210.000
 998.1000, -87.864
 998.2000, -82.497
 998.3000, -83.398
 998.4000, -89.524
 998.5000, -83.291
 998.6000, -81.752
 998.7000, -81.216
 998.8000, -84.883
 998.9000,-210.000
 999.0000, -83.573
 999.1000, -86.159
 999.2000, -80.366
 999.3000, -83.266
 999.4000,-210.000
 999.5000, -83.168
 999.6000, -83.190
 999.7000, -86.283
 999.8000, -80.368
 999.9000, -85.274
1000.0000, -82.830
1000.1000, -79.939
1000.2000, -80.856
1000.3000, -81.855
1000.4000, -83.329
1000.5000, -81.099
1000.6000,-100.762
1000.7000, -81.923
1000.8000, -78.809
1000.9000, -82.798
1001.0000, -81.469
1001.1000, -92.115
1001.2000, -78.001
1001.3000, -83.405
1001.4000,-210.000
1001.5000, -80.376
1001.6000, -88.644
1001.7000, -83.052
1001.8000, -81.717
1001.9000, -79.943
1002.0000, -90.455
1002.1000,-100.772
1002.2000, -77.964
1002.3000, -85.975
1002.4000, -80.135
1002.5000,-210.000
1002.6000,-210.000
1002.7000, -79.725
1002.8000, -81.017
1002.9000, -82.734
1003.0000, -82.103
1003.1000, -82.857
