70BCSV 	
// AQ6370B OPTICAL SPECTRUM ANALYZER //                 
25
"CTRWL",1300.000000
"SPAN", 800.000000
"START WL", 900.000000
"STOP WL",1700.000000
"WLFREQ", 0
"REFL",-17.2
"LSCL",10.0
"RESLN",0.500
"AVG",   1
"SMPLAUTO",      1
"SMPL",       8001
"SMPLINTVL",0.1000
"HIGH1"
"MEAS"
"LSUNT",0
"NMSKH","OFF"
"RESCOR",0
"RESPARM", 9740
"FREQPARM", 9740






"[TRACE DATA]"
 900.0000,-210.000
 900.1000,-210.000
 900.2000, -81.107
 900.3000, -92.657
 900.4000, -72.991
 900.5000,-210.000
 900.6000, -76.679
 900.7000, -73.373
 900.8000,-210.000
 900.9000, -74.650
 901.0000,-210.000
 901.1000, -75.508
 901.2000, -82.636
 901.3000, -81.068
 901.4000,-210.000
 901.5000,-210.000
 901.6000, -73.357
 901.7000,-210.000
 901.8000,-210.000
 901.9000,-210.000
 902.0000, -75.744
 902.1000, -74.221
 902.2000,-210.000
 902.3000, -81.514
 902.4000,-210.000
 902.5000, -76.634
 902.6000, -72.134
 902.7000, -77.179
 902.8000,-210.000
 902.9000, -84.667
 903.0000, -85.426
 903.1000, -76.336
 903.2000, -88.249
 903.3000, -76.881
 903.4000, -78.847
 903.5000, -74.944
 903.6000, -76.818
 903.7000, -89.905
 903.8000, -78.744
 903.9000, -88.648
 904.0000, -74.495
 904.1000, -79.550
 904.2000,-210.000
 904.3000, -76.930
 904.4000, -79.852
 904.5000, -74.752
 904.6000, -78.609
 904.7000,-210.000
 904.8000, -72.008
 904.9000,-210.000
 905.0000, -77.561
 905.1000, -73.235
 905.2000, -77.635
 905.3000, -78.149
 905.4000,-210.000
 905.5000,-210.000
 905.6000, -73.379
 905.7000,-210.000
 905.8000, -78.206
 905.9000, -75.833
 906.0000,-210.000
 906.1000, -74.529
 906.2000,-210.000
 906.3000, -74.738
 906.4000,-210.000
 906.5000, -75.744
 906.6000, -78.003
 906.7000,-210.000
 906.8000, -71.984
 906.9000, -76.026
 907.0000, -83.446
 907.1000,-210.000
 907.2000, -73.486
 907.3000, -73.030
 907.4000, -74.792
 907.5000, -76.277
 907.6000,-210.000
 907.7000,-210.000
 907.8000, -77.919
 907.9000, -80.425
 908.0000, -90.451
 908.1000,-210.000
 908.2000, -73.834
 908.3000, -88.077
 908.4000,-210.000
 908.5000, -85.544
 908.6000, -73.396
 908.7000,-210.000
 908.8000, -75.835
 908.9000, -75.063
 909.0000,-210.000
 909.1000, -76.720
 909.2000, -85.315
 909.3000, -76.758
 909.4000, -81.540
 909.5000,-210.000
 909.6000,-210.000
 909.7000, -79.142
 909.8000, -74.207
 909.9000, -72.297
 910.0000,-210.000
 910.1000, -80.378
 910.2000, -81.957
 910.3000, -76.745
 910.4000, -79.208
 910.5000, -79.696
 910.6000, -72.431
 910.7000, -86.093
 910.8000,-210.000
 910.9000,-210.000
 911.0000, -75.387
 911.1000, -83.068
 911.2000, -86.677
 911.3000, -78.796
 911.4000, -77.845
 911.5000, -79.863
 911.6000, -74.000
 911.7000, -75.799
 911.8000, -75.513
 911.9000,-210.000
 912.0000, -76.086
 912.1000,-210.000
 912.2000, -75.950
 912.3000, -75.561
 912.4000,-210.000
 912.5000, -84.063
 912.6000, -77.819
 912.7000, -77.310
 912.8000, -76.356
 912.9000, -77.522
 913.0000, -74.675
 913.1000, -74.416
 913.2000,-210.000
 913.3000,-210.000
 913.4000, -73.592
 913.5000,-210.000
 913.6000, -77.073
 913.7000,-210.000
 913.8000, -83.879
 913.9000,-210.000
 914.0000, -76.867
 914.1000, -76.882
 914.2000, -82.626
 914.3000, -76.568
 914.4000, -89.783
 914.5000,-210.000
 914.6000, -75.994
 914.7000, -79.909
 914.8000, -93.724
 914.9000, -81.677
 915.0000,-210.000
 915.1000, -75.721
 915.2000, -78.579
 915.3000, -82.157
 915.4000, -83.196
 915.5000,-210.000
 915.6000, -81.474
 915.7000, -75.580
 915.8000,-210.000
 915.9000, -78.650
 916.0000, -79.615
 916.1000, -80.095
 916.2000, -79.300
 916.3000,-210.000
 916.4000, -83.286
 916.5000, -79.054
 916.6000, -72.776
 916.7000, -77.830
 916.8000,-210.000
 916.9000, -96.196
 917.0000, -84.216
 917.1000,-210.000
 917.2000, -79.155
 917.3000, -81.552
 917.4000, -76.058
 917.5000, -75.043
 917.6000,-210.000
 917.7000,-210.000
 917.8000, -82.861
 917.9000, -76.753
 918.0000, -72.120
 918.1000,-210.000
 918.2000,-210.000
 918.3000, -99.924
 918.4000, -81.702
 918.5000, -73.595
 918.6000, -77.262
 918.7000, -77.797
 918.8000, -82.899
 918.9000, -75.754
 919.0000, -83.916
 919.1000, -84.990
 919.2000, -75.388
 919.3000,-210.000
 919.4000, -82.994
 919.5000,-210.000
 919.6000, -75.920
 919.7000, -76.347
 919.8000, -76.757
 919.9000,-210.000
 920.0000,-210.000
 920.1000, -84.889
 920.2000, -78.253
 920.3000, -78.094
 920.4000,-210.000
 920.5000, -73.591
 920.6000,-210.000
 920.7000, -83.028
 920.8000, -79.668
 920.9000, -80.056
 921.0000, -78.534
 921.1000,-210.000
 921.2000, -77.375
 921.3000, -77.996
 921.4000, -75.637
 921.5000, -76.989
 921.6000,-210.000
 921.7000, -79.002
 921.8000, -79.516
 921.9000,-210.000
 922.0000, -79.448
 922.1000, -76.774
 922.2000,-210.000
 922.3000,-210.000
 922.4000, -83.457
 922.5000,-210.000
 922.6000, -77.066
 922.7000, -79.957
 922.8000, -86.516
 922.9000, -83.167
 923.0000,-210.000
 923.1000, -75.654
 923.2000, -77.793
 923.3000, -74.092
 923.4000, -77.925
 923.5000,-210.000
 923.6000,-210.000
 923.7000, -81.682
 923.8000, -77.509
 923.9000,-210.000
 924.0000, -76.036
 924.1000, -77.976
 924.2000,-210.000
 924.3000, -80.242
 924.4000,-210.000
 924.5000,-210.000
 924.6000, -77.102
 924.7000, -80.346
 924.8000, -80.990
 924.9000,-210.000
 925.0000, -79.440
 925.1000, -78.268
 925.2000, -75.701
 925.3000,-210.000
 925.4000, -83.359
 925.5000,-210.000
 925.6000, -78.934
 925.7000, -76.508
 925.8000, -83.348
 925.9000, -82.544
 926.0000,-210.000
 926.1000, -79.441
 926.2000, -78.042
 926.3000, -83.000
 926.4000,-210.000
 926.5000, -78.854
 926.6000, -77.733
 926.7000, -79.716
 926.8000, -79.997
 926.9000,-210.000
 927.0000, -78.669
 927.1000, -80.796
 927.2000,-210.000
 927.3000, -79.463
 927.4000, -79.539
 927.5000, -87.945
 927.6000, -78.916
 927.7000, -82.632
 927.8000,-210.000
 927.9000, -78.061
 928.0000, -83.025
 928.1000, -85.358
 928.2000, -78.720
 928.3000, -87.702
 928.4000,-210.000
 928.5000,-210.000
 928.6000, -82.367
 928.7000, -81.071
 928.8000,-210.000
 928.9000,-210.000
 929.0000, -75.841
 929.1000,-210.000
 929.2000, -86.404
 929.3000, -75.050
 929.4000, -76.055
 929.5000,-210.000
 929.6000,-210.000
 929.7000,-210.000
 929.8000,-210.000
 929.9000,-210.000
 930.0000,-210.000
 930.1000, -77.436
 930.2000, -75.416
 930.3000,-210.000
 930.4000, -80.117
 930.5000, -79.968
 930.6000, -76.033
 930.7000,-210.000
 930.8000,-210.000
 930.9000, -86.361
 931.0000, -79.710
 931.1000, -76.317
 931.2000,-210.000
 931.3000, -78.189
 931.4000,-210.000
 931.5000, -85.515
 931.6000,-210.000
 931.7000, -81.736
 931.8000, -80.801
 931.9000, -78.818
 932.0000, -82.900
 932.1000, -82.498
 932.2000,-210.000
 932.3000, -86.770
 932.4000, -77.651
 932.5000, -87.707
 932.6000, -83.218
 932.7000, -75.633
 932.8000, -84.052
 932.9000, -80.773
 933.0000,-210.000
 933.1000,-210.000
 933.2000, -73.935
 933.3000,-210.000
 933.4000,-210.000
 933.5000, -79.355
 933.6000, -79.786
 933.7000, -75.874
 933.8000, -84.332
 933.9000, -77.802
 934.0000,-210.000
 934.1000, -84.848
 934.2000,-210.000
 934.3000, -76.477
 934.4000, -77.431
 934.5000,-210.000
 934.6000, -79.904
 934.7000,-210.000
 934.8000, -77.772
 934.9000, -81.830
 935.0000, -79.670
 935.1000,-210.000
 935.2000, -76.790
 935.3000,-210.000
 935.4000, -89.045
 935.5000, -81.479
 935.6000,-210.000
 935.7000, -79.491
 935.8000, -87.201
 935.9000, -87.249
 936.0000, -78.729
 936.1000, -79.414
 936.2000, -76.106
 936.3000,-210.000
 936.4000, -76.086
 936.5000, -77.728
 936.6000,-210.000
 936.7000,-210.000
 936.8000, -80.768
 936.9000, -78.231
 937.0000, -75.560
 937.1000,-210.000
 937.2000,-210.000
 937.3000,-210.000
 937.4000, -79.120
 937.5000,-210.000
 937.6000, -87.940
 937.7000, -82.498
 937.8000, -77.012
 937.9000, -98.467
 938.0000, -79.431
 938.1000, -78.935
 938.2000,-210.000
 938.3000, -77.803
 938.4000, -77.507
 938.5000, -80.523
 938.6000, -75.153
 938.7000, -80.978
 938.8000, -77.401
 938.9000, -79.263
 939.0000, -78.426
 939.1000, -75.911
 939.2000, -75.580
 939.3000, -74.030
 939.4000,-210.000
 939.5000, -84.097
 939.6000, -80.359
 939.7000, -79.811
 939.8000,-210.000
 939.9000, -82.318
 940.0000,-210.000
 940.1000,-210.000
 940.2000,-210.000
 940.3000, -82.169
 940.4000, -77.109
 940.5000, -76.979
 940.6000,-210.000
 940.7000,-210.000
 940.8000,-210.000
 940.9000, -82.142
 941.0000, -82.541
 941.1000, -83.706
 941.2000, -79.577
 941.3000,-210.000
 941.4000, -78.959
 941.5000, -82.454
 941.6000, -77.662
 941.7000, -83.051
 941.8000, -79.425
 941.9000, -78.027
 942.0000,-210.000
 942.1000, -82.849
 942.2000,-210.000
 942.3000, -83.152
 942.4000, -89.118
 942.5000, -80.207
 942.6000, -89.229
 942.7000, -81.545
 942.8000, -79.102
 942.9000,-210.000
 943.0000,-210.000
 943.1000, -80.549
 943.2000, -80.923
 943.3000,-210.000
 943.4000, -78.204
 943.5000, -81.252
 943.6000,-210.000
 943.7000, -81.945
 943.8000,-210.000
 943.9000, -80.645
 944.0000, -87.328
 944.1000, -79.581
 944.2000,-210.000
 944.3000, -80.834
 944.4000, -77.937
 944.5000, -86.150
 944.6000, -82.700
 944.7000,-210.000
 944.8000, -75.620
 944.9000,-210.000
 945.0000, -82.685
 945.1000, -78.497
 945.2000, -79.674
 945.3000, -80.649
 945.4000, -77.513
 945.5000, -80.715
 945.6000, -76.653
 945.7000, -76.149
 945.8000, -75.090
 945.9000, -73.126
 946.0000, -75.722
 946.1000, -74.752
 946.2000, -73.875
 946.3000, -74.903
 946.4000, -75.247
 946.5000, -74.773
 946.6000, -74.573
 946.7000, -72.776
 946.8000,-210.000
 946.9000, -82.107
 947.0000, -77.557
 947.1000, -80.920
 947.2000, -79.721
 947.3000, -83.443
 947.4000, -77.911
 947.5000, -77.357
 947.6000, -79.896
 947.7000, -75.627
 947.8000,-210.000
 947.9000, -83.820
 948.0000, -79.640
 948.1000,-210.000
 948.2000, -81.327
 948.3000, -87.802
 948.4000, -79.868
 948.5000, -87.792
 948.6000, -79.153
 948.7000, -78.390
 948.8000,-210.000
 948.9000,-210.000
 949.0000, -84.730
 949.1000,-210.000
 949.2000, -79.063
 949.3000, -80.937
 949.4000, -82.596
 949.5000, -78.341
 949.6000, -86.077
 949.7000, -78.931
 949.8000, -79.321
 949.9000,-210.000
 950.0000, -76.629
 950.1000,-210.000
 950.2000,-210.000
 950.3000, -81.557
 950.4000, -96.356
 950.5000, -84.984
 950.6000,-210.000
 950.7000, -81.390
 950.8000, -84.014
 950.9000, -81.695
 951.0000, -90.485
 951.1000,-210.000
 951.2000, -75.930
 951.3000, -84.071
 951.4000, -81.711
 951.5000, -89.221
 951.6000,-210.000
 951.7000, -81.904
 951.8000,-210.000
 951.9000, -79.314
 952.0000, -89.508
 952.1000, -82.242
 952.2000, -83.427
 952.3000, -80.952
 952.4000,-210.000
 952.5000, -86.929
 952.6000, -82.335
 952.7000,-210.000
 952.8000, -79.345
 952.9000, -86.099
 953.0000, -79.595
 953.1000, -83.106
 953.2000, -86.282
 953.3000, -80.057
 953.4000, -80.046
 953.5000, -87.598
 953.6000, -85.945
 953.7000, -79.283
 953.8000, -90.438
 953.9000, -81.644
 954.0000,-210.000
 954.1000, -79.412
 954.2000, -80.478
 954.3000, -86.474
 954.4000,-210.000
 954.5000, -84.956
 954.6000, -86.068
 954.7000, -81.360
 954.8000, -83.599
 954.9000, -79.602
 955.0000,-210.000
 955.1000,-210.000
 955.2000, -87.869
 955.3000, -83.300
 955.4000, -91.595
 955.5000, -79.936
 955.6000, -86.419
 955.7000,-210.000
 955.8000, -80.669
 955.9000, -80.706
 956.0000, -80.315
 956.1000, -93.788
 956.2000, -80.551
 956.3000,-210.000
 956.4000,-210.000
 956.5000, -82.943
 956.6000,-210.000
 956.7000, -83.612
 956.8000, -82.427
 956.9000,-210.000
 957.0000, -80.679
 957.1000, -86.214
 957.2000, -81.541
 957.3000,-210.000
 957.4000, -83.921
 957.5000, -83.006
 957.6000, -78.389
 957.7000,-210.000
 957.8000, -81.632
 957.9000, -83.991
 958.0000, -87.402
 958.1000, -82.955
 958.2000, -81.261
 958.3000,-210.000
 958.4000, -79.664
 958.5000, -85.268
 958.6000, -82.664
 958.7000, -86.793
 958.8000,-210.000
 958.9000, -87.646
 959.0000, -86.182
 959.1000, -81.368
 959.2000,-210.000
 959.3000, -80.768
 959.4000,-210.000
 959.5000, -92.514
 959.6000,-210.000
 959.7000, -82.572
 959.8000, -82.226
 959.9000, -85.580
 960.0000, -86.408
 960.1000, -86.498
 960.2000, -82.332
 960.3000,-210.000
 960.4000, -80.273
 960.5000,-210.000
 960.6000, -85.406
 960.7000, -87.973
 960.8000, -83.682
 960.9000, -84.859
 961.0000,-210.000
 961.1000, -80.455
 961.2000, -82.948
 961.3000, -87.859
 961.4000, -82.645
 961.5000, -82.397
 961.6000, -85.190
 961.7000, -79.726
 961.8000, -87.712
 961.9000, -88.929
 962.0000, -81.498
 962.1000,-210.000
 962.2000, -83.606
 962.3000,-210.000
 962.4000, -80.003
 962.5000, -91.166
 962.6000,-210.000
 962.7000, -82.948
 962.8000, -84.226
 962.9000, -84.169
 963.0000, -79.674
 963.1000,-210.000
 963.2000, -83.036
 963.3000,-210.000
 963.4000, -81.307
 963.5000, -80.537
 963.6000,-210.000
 963.7000, -86.003
 963.8000,-210.000
 963.9000, -80.060
 964.0000, -84.673
 964.1000,-210.000
 964.2000, -81.215
 964.3000, -85.330
 964.4000, -81.152
 964.5000, -87.855
 964.6000, -78.545
 964.7000, -83.272
 964.8000, -87.638
 964.9000,-210.000
 965.0000, -80.354
 965.1000, -84.033
 965.2000, -81.592
 965.3000, -86.167
 965.4000, -82.147
 965.5000,-210.000
 965.6000, -89.544
 965.7000, -86.127
 965.8000, -85.379
 965.9000,-210.000
 966.0000, -78.941
 966.1000,-210.000
 966.2000, -81.995
 966.3000, -85.158
 966.4000,-210.000
 966.5000,-210.000
 966.6000,-210.000
 966.7000, -80.692
 966.8000, -95.614
 966.9000, -82.125
 967.0000, -79.044
 967.1000, -84.973
 967.2000, -80.041
 967.3000,-210.000
 967.4000, -78.713
 967.5000, -81.488
 967.6000,-210.000
 967.7000, -84.717
 967.8000, -82.534
 967.9000, -80.344
 968.0000, -90.310
 968.1000,-210.000
 968.2000,-210.000
 968.3000, -78.805
 968.4000, -83.341
 968.5000, -81.065
 968.6000,-210.000
 968.7000, -80.651
 968.8000, -81.041
 968.9000, -94.747
 969.0000,-210.000
 969.1000, -79.322
 969.2000, -83.095
 969.3000, -81.110
 969.4000,-210.000
 969.5000, -81.797
 969.6000,-210.000
 969.7000, -94.756
 969.8000, -81.932
 969.9000, -84.517
 970.0000, -83.378
 970.1000, -81.417
 970.2000, -83.108
 970.3000, -91.959
 970.4000, -83.742
 970.5000,-210.000
 970.6000, -79.659
 970.7000, -81.305
 970.8000,-210.000
 970.9000, -89.217
 971.0000, -83.985
 971.1000, -80.464
 971.2000, -81.116
 971.3000,-210.000
 971.4000, -77.371
 971.5000, -93.218
 971.6000, -79.810
 971.7000, -81.358
 971.8000, -87.743
 971.9000, -82.991
 972.0000, -80.647
 972.1000, -85.040
 972.2000,-210.000
 972.3000, -84.592
 972.4000, -81.217
 972.5000, -90.732
 972.6000, -90.064
 972.7000, -83.026
 972.8000, -83.465
 972.9000,-210.000
 973.0000,-210.000
 973.1000, -95.578
 973.2000, -90.416
 973.3000,-210.000
 973.4000, -80.009
 973.5000, -80.292
 973.6000, -83.565
 973.7000, -79.505
 973.8000,-210.000
 973.9000, -92.179
 974.0000, -79.052
 974.1000, -85.170
 974.2000, -78.747
 974.3000, -75.480
 974.4000, -79.973
 974.5000,-210.000
 974.6000, -80.799
 974.7000,-210.000
 974.8000,-210.000
 974.9000,-210.000
 975.0000,-210.000
 975.1000, -80.377
 975.2000,-210.000
 975.3000, -82.176
 975.4000, -79.698
 975.5000,-210.000
 975.6000, -85.021
 975.7000, -87.762
 975.8000, -92.276
 975.9000, -82.191
 976.0000, -82.547
 976.1000, -82.288
 976.2000, -80.831
 976.3000,-210.000
 976.4000, -81.200
 976.5000, -83.998
 976.6000,-210.000
 976.7000, -83.886
 976.8000,-210.000
 976.9000, -81.917
 977.0000, -83.556
 977.1000, -83.543
 977.2000, -81.759
 977.3000,-210.000
 977.4000, -82.310
 977.5000, -85.077
 977.6000, -81.943
 977.7000, -82.830
 977.8000, -80.803
 977.9000, -78.835
 978.0000,-210.000
 978.1000, -80.956
 978.2000,-210.000
 978.3000, -78.920
 978.4000, -91.681
 978.5000, -78.767
 978.6000, -80.156
 978.7000,-210.000
 978.8000, -85.849
 978.9000, -77.509
 979.0000, -83.252
 979.1000,-210.000
 979.2000, -84.904
 979.3000, -80.324
 979.4000,-210.000
 979.5000, -92.212
 979.6000, -90.536
 979.7000, -81.140
 979.8000,-210.000
 979.9000, -81.068
 980.0000, -80.227
 980.1000, -78.266
 980.2000, -84.141
 980.3000, -80.315
 980.4000,-210.000
 980.5000,-210.000
 980.6000, -77.265
 980.7000, -81.192
 980.8000, -79.647
 980.9000, -89.505
 981.0000,-210.000
 981.1000,-210.000
 981.2000, -86.284
 981.3000, -81.801
 981.4000, -83.061
 981.5000, -81.641
 981.6000, -81.254
 981.7000, -85.082
 981.8000, -78.922
 981.9000, -79.287
 982.0000,-210.000
 982.1000, -84.232
 982.2000, -85.987
 982.3000, -84.518
 982.4000, -82.189
 982.5000, -86.680
 982.6000, -80.904
 982.7000, -76.919
 982.8000,-210.000
 982.9000,-210.000
 983.0000, -88.703
 983.1000, -81.942
 983.2000,-210.000
 983.3000, -80.062
 983.4000, -78.461
 983.5000,-210.000
 983.6000,-210.000
 983.7000, -85.443
 983.8000, -81.978
 983.9000, -85.358
 984.0000, -78.525
 984.1000,-210.000
 984.2000, -80.110
 984.3000,-210.000
 984.4000,-210.000
 984.5000, -79.401
 984.6000, -81.792
 984.7000,-210.000
 984.8000, -80.795
 984.9000,-210.000
 985.0000, -91.373
 985.1000,-210.000
 985.2000, -80.379
 985.3000, -94.442
 985.4000, -83.865
 985.5000, -86.907
 985.6000, -83.436
 985.7000, -92.270
 985.8000, -91.220
 985.9000, -82.469
 986.0000, -83.313
 986.1000,-210.000
 986.2000, -84.423
 986.3000, -98.003
 986.4000, -81.594
 986.5000,-210.000
 986.6000, -84.931
 986.7000, -81.379
 986.8000, -78.485
 986.9000,-210.000
 987.0000,-210.000
 987.1000, -78.946
 987.2000, -86.653
 987.3000, -80.835
 987.4000,-210.000
 987.5000, -80.753
 987.6000, -82.840
 987.7000,-210.000
 987.8000, -81.295
 987.9000,-210.000
 988.0000, -78.322
 988.1000,-210.000
 988.2000, -89.970
 988.3000, -84.737
 988.4000, -83.106
 988.5000,-210.000
 988.6000, -83.257
 988.7000, -82.125
 988.8000, -84.754
 988.9000,-210.000
 989.0000, -93.314
 989.1000, -81.478
 989.2000, -89.045
 989.3000,-210.000
 989.4000, -83.522
 989.5000, -94.328
 989.6000, -85.901
 989.7000, -84.270
 989.8000, -84.241
 989.9000, -96.741
 990.0000, -81.648
 990.1000, -82.133
 990.2000, -82.625
 990.3000, -86.712
 990.4000, -82.435
 990.5000,-210.000
 990.6000, -99.360
 990.7000, -81.282
 990.8000, -85.017
 990.9000, -77.871
 991.0000, -93.080
 991.1000,-210.000
 991.2000,-210.000
 991.3000, -80.418
 991.4000,-210.000
 991.5000, -85.503
 991.6000, -83.417
 991.7000, -84.776
 991.8000, -88.552
 991.9000, -83.362
 992.0000, -83.733
 992.1000, -87.056
 992.2000, -85.183
 992.3000,-210.000
 992.4000, -99.836
 992.5000, -82.053
 992.6000, -80.658
 992.7000, -80.896
 992.8000, -94.174
 992.9000,-210.000
 993.0000, -81.868
 993.1000, -80.442
 993.2000, -78.037
 993.3000,-210.000
 993.4000, -94.116
 993.5000, -78.683
 993.6000,-210.000
 993.7000, -79.674
 993.8000, -82.183
 993.9000,-210.000
 994.0000, -81.581
 994.1000, -82.987
 994.2000,-210.000
 994.3000, -78.405
 994.4000,-210.000
 994.5000, -78.479
 994.6000,-210.000
 994.7000, -83.204
 994.8000, -77.379
 994.9000, -83.493
 995.0000,-210.000
 995.1000, -83.178
 995.2000,-210.000
 995.3000, -94.726
 995.4000, -87.288
 995.5000, -81.595
 995.6000, -89.022
 995.7000, -81.766
 995.8000, -84.375
 995.9000,-210.000
 996.0000, -82.210
 996.1000,-210.000
 996.2000, -82.710
 996.3000,-210.000
 996.4000, -83.302
 996.5000, -76.697
 996.6000,-210.000
 996.7000, -85.633
 996.8000, -90.003
 996.9000, -84.235
 997.0000, -83.838
 997.1000, -84.772
 997.2000, -79.201
 997.3000, -83.456
 997.4000,-210.000
 997.5000, -82.287
 997.6000, -77.970
 997.7000,-210.000
 997.8000, -85.158
 997.9000,-210.000
 998.0000, -84.245
 998.1000, -80.430
 998.2000,-210.000
 998.3000, -86.321
 998.4000, -87.667
 998.5000, -84.242
 998.6000, -85.556
 998.7000, -82.959
 998.8000, -80.247
 998.9000, -82.583
 999.0000,-210.000
 999.1000,-210.000
 999.2000, -80.793
 999.3000,-210.000
 999.4000, -79.932
 999.5000,-210.000
 999.6000, -85.612
 999.7000, -77.339
 999.8000,-210.000
 999.9000, -80.667
1000.0000,-210.000
1000.1000, -83.246
1000.2000, -82.577
1000.3000, -81.367
1000.4000, -84.346
1000.5000, -81.281
1000.6000, -87.685
1000.7000,-210.000
1000.8000, -84.468
1000.9000,-104.585
1001.0000, -81.418
1001.1000, -80.270
1001.2000, -94.514
1001.3000, -83.277
1001.4000, -86.890
1001.5000, -87.252
1001.6000, -82.176
1001.7000, -90.756
1001.8000, -80.463
1001.9000, -84.993
1002.0000,-210.000
1002.1000,-210.000
1002.2000, -81.503
1002.3000, -79.150
1002.4000, -80.750
1002.5000, -85.895
1002.6000, -87.972
1002.7000,-210.000
1002.8000, -80.063
1002.9000, -84.719
1003.0000, -94.075
1003.1000, -84.302
