70BCSV 	
// AQ6370B OPTICAL SPECTRUM ANALYZER //                 
25
"CTRWL",1550.000000
"SPAN", 100.000000
"START WL",1500.000000
"STOP WL",1600.000000
"WLFREQ", 0
"REFL",-58.5
"LSCL", 5.0
"RESLN",0.500
"AVG",   1
"SMPLAUTO",      0
"SMPL",       2500
"SMPLINTVL",0.0400
"HIGH1"
"MEAS"
"LSUNT",0
"NMSKH","OFF"
"RESCOR",0
"RESPARM", 9740
"FREQPARM", 9740






"[TRACE DATA]"
1500.0000, -83.587
1500.0400, -82.941
1500.0800, -84.582
1500.1200, -84.397
1500.1601, -87.613
1500.2001, -92.483
1500.2401, -82.634
1500.2801, -88.886
1500.3201, -83.374
1500.3601, -83.862
1500.4002,-210.000
1500.4402, -96.090
1500.4802, -82.920
1500.5202, -84.501
1500.5602,-105.259
1500.6002, -98.052
1500.6403, -84.078
1500.6803, -85.551
1500.7203, -81.782
1500.7603,-210.000
1500.8003, -81.866
1500.8403,-210.000
1500.8804, -83.396
1500.9204, -88.586
1500.9604, -83.821
1501.0004, -84.743
1501.0404, -81.957
1501.0804, -84.681
1501.1204, -91.997
1501.1605, -88.666
1501.2005, -85.980
1501.2405, -84.313
1501.2805, -86.243
1501.3205, -91.141
1501.3605, -82.600
1501.4006, -84.793
1501.4406, -94.859
1501.4806,-210.000
1501.5206, -86.111
1501.5606, -83.781
1501.6006, -86.927
1501.6407, -89.567
1501.6807, -85.363
1501.7207, -85.194
1501.7607, -91.477
1501.8007, -81.929
1501.8407, -82.677
1501.8808, -85.017
1501.9208, -82.726
1501.9608, -92.052
1502.0008, -84.687
1502.0408, -85.455
1502.0808, -83.644
1502.1208, -85.014
1502.1609,-210.000
1502.2009, -94.804
1502.2409, -81.773
1502.2809,-210.000
1502.3209, -83.326
1502.3609, -82.145
1502.4010,-210.000
1502.4410, -84.161
1502.4810, -83.378
1502.5210, -85.471
1502.5610, -81.999
1502.6010,-210.000
1502.6411, -83.033
1502.6811,-210.000
1502.7211, -81.766
1502.7611, -86.082
1502.8011, -85.866
1502.8411, -83.368
1502.8812, -89.936
1502.9212, -81.471
1502.9612, -92.278
1503.0012, -81.793
1503.0412, -83.942
1503.0812, -90.273
1503.1212,-210.000
1503.1613, -84.173
1503.2013, -84.965
1503.2413, -86.159
1503.2813,-210.000
1503.3213, -82.876
1503.3613, -88.879
1503.4014, -81.569
1503.4414, -86.603
1503.4814, -83.761
1503.5214, -86.246
1503.5614, -96.908
1503.6014, -86.133
1503.6415, -84.485
1503.6815, -81.409
1503.7215, -84.330
1503.7615, -85.459
1503.8015, -85.703
1503.8415, -85.879
1503.8816, -89.868
1503.9216, -83.710
1503.9616, -82.378
1504.0016,-210.000
1504.0416, -82.340
1504.0816, -83.472
1504.1216,-210.000
1504.1617, -80.664
1504.2017, -91.249
1504.2417, -82.636
1504.2817, -86.396
1504.3217, -85.827
1504.3617, -82.858
1504.4018, -85.910
1504.4418,-210.000
1504.4818, -83.283
1504.5218, -83.541
1504.5618,-210.000
1504.6018, -83.645
1504.6419, -86.326
1504.6819, -81.556
1504.7219,-210.000
1504.7619, -82.236
1504.8019,-210.000
1504.8419,-210.000
1504.8820, -84.720
1504.9220, -81.253
1504.9620, -89.821
1505.0020, -85.649
1505.0420, -82.354
1505.0820, -88.761
1505.1220, -85.561
1505.1621, -85.804
1505.2021, -84.005
1505.2421, -83.577
1505.2821, -82.712
1505.3221, -87.040
1505.3621, -83.253
1505.4022,-101.694
1505.4422, -84.927
1505.4822, -86.839
1505.5222, -82.649
1505.5622, -86.966
1505.6022, -82.562
1505.6423, -88.552
1505.6823, -84.016
1505.7223, -85.606
1505.7623, -91.615
1505.8023, -84.062
1505.8423, -86.741
1505.8824, -86.127
1505.9224, -85.157
1505.9624, -82.742
1506.0024, -83.093
1506.0424, -82.866
1506.0824, -92.964
1506.1224, -86.834
1506.1625, -89.608
1506.2025, -81.387
1506.2425, -88.568
1506.2825, -81.546
1506.3225, -83.213
1506.3625, -93.371
1506.4026, -87.973
1506.4426, -99.284
1506.4826, -84.501
1506.5226, -82.451
1506.5626, -88.666
1506.6026, -82.190
1506.6427, -88.061
1506.6827, -85.643
1506.7227, -88.064
1506.7627, -91.072
1506.8027, -84.068
1506.8427, -83.734
1506.8828, -92.599
1506.9228, -85.194
1506.9628, -83.376
1507.0028, -84.866
1507.0428, -87.907
1507.0828, -84.279
1507.1228,-210.000
1507.1629, -81.137
1507.2029, -88.207
1507.2429, -85.836
1507.2829, -83.530
1507.3229,-210.000
1507.3629, -84.452
1507.4030, -87.376
1507.4430, -85.453
1507.4830, -86.642
1507.5230, -85.139
1507.5630, -84.668
1507.6030, -81.671
1507.6431, -95.993
1507.6831, -86.962
1507.7231, -84.053
1507.7631, -81.993
1507.8031, -90.739
1507.8431, -86.972
1507.8832, -84.593
1507.9232, -80.723
1507.9632,-210.000
1508.0032, -85.130
1508.0432, -84.405
1508.0832,-210.000
1508.1232,-210.000
1508.1633, -84.528
1508.2033, -84.781
1508.2433, -86.563
1508.2833, -83.499
1508.3233, -84.891
1508.3633, -83.961
1508.4034, -83.285
1508.4434, -83.437
1508.4834,-210.000
1508.5234, -81.453
1508.5634, -91.546
1508.6034, -84.678
1508.6435, -83.554
1508.6835,-101.665
1508.7235, -85.083
1508.7635,-210.000
1508.8035, -91.517
1508.8435, -83.412
1508.8836, -86.238
1508.9236, -82.080
1508.9636, -90.818
1509.0036, -82.748
1509.0436, -85.926
1509.0836, -85.116
1509.1236, -82.683
1509.1637,-210.000
1509.2037, -81.199
1509.2437, -89.014
1509.2837,-210.000
1509.3237, -83.280
1509.3637,-210.000
1509.4038, -83.801
1509.4438, -86.964
1509.4838, -96.596
1509.5238, -82.892
1509.5638, -86.301
1509.6038, -84.243
1509.6439,-210.000
1509.6839, -82.455
1509.7239, -84.517
1509.7639, -96.076
1509.8039, -83.655
1509.8439, -81.662
1509.8840, -83.435
1509.9240, -88.525
1509.9640, -84.561
1510.0040, -84.170
1510.0440,-210.000
1510.0840, -86.244
1510.1240, -85.108
1510.1641, -84.926
1510.2041, -84.159
1510.2441, -84.009
1510.2841, -83.656
1510.3241, -83.048
1510.3641, -83.031
1510.4042, -88.674
1510.4442, -93.036
1510.4842, -87.867
1510.5242, -89.305
1510.5642, -83.047
1510.6042, -85.272
1510.6443, -83.519
1510.6843, -88.805
1510.7243, -82.927
1510.7643, -86.366
1510.8043, -86.763
1510.8443, -84.245
1510.8844, -85.200
1510.9244, -86.721
1510.9644, -84.937
1511.0044, -83.682
1511.0444, -85.971
1511.0844, -81.846
1511.1244, -83.066
1511.1645, -84.955
1511.2045, -85.958
1511.2445, -85.094
1511.2845,-210.000
1511.3245, -82.925
1511.3645, -85.118
1511.4046, -86.269
1511.4446, -83.913
1511.4846, -84.031
1511.5246, -87.300
1511.5646, -82.309
1511.6046, -83.733
1511.6447, -82.407
1511.6847, -85.267
1511.7247, -83.223
1511.7647, -81.639
1511.8047,-210.000
1511.8447, -85.506
1511.8848, -83.953
1511.9248, -86.274
1511.9648, -81.149
1512.0048,-210.000
1512.0448, -83.325
1512.0848, -90.951
1512.1248, -82.266
1512.1649, -82.969
1512.2049, -85.638
1512.2449, -84.767
1512.2849, -84.365
1512.3249, -82.622
1512.3649, -83.159
1512.4050, -84.306
1512.4450, -86.015
1512.4850, -83.123
1512.5250, -99.559
1512.5650, -81.692
1512.6050, -82.949
1512.6451,-210.000
1512.6851, -90.948
1512.7251, -83.374
1512.7651, -84.702
1512.8051, -90.989
1512.8451, -83.830
1512.8852, -85.430
1512.9252, -83.138
1512.9652, -87.546
1513.0052, -83.264
1513.0452, -83.327
1513.0852, -82.744
1513.1253, -84.037
1513.1653, -84.763
1513.2053, -86.317
1513.2453, -81.844
1513.2853, -89.560
1513.3253, -88.027
1513.3653, -81.406
1513.4054, -83.481
1513.4454, -86.759
1513.4854, -92.061
1513.5254, -86.624
1513.5654, -83.793
1513.6054, -89.230
1513.6455, -83.344
1513.6855, -87.967
1513.7255, -82.137
1513.7655,-210.000
1513.8055, -82.171
1513.8455, -82.484
1513.8856, -85.184
1513.9256, -83.496
1513.9656, -84.168
1514.0056, -81.612
1514.0456, -85.625
1514.0856, -85.607
1514.1257, -84.036
1514.1657, -80.436
1514.2057, -83.513
1514.2457,-210.000
1514.2857, -82.585
1514.3257,-210.000
1514.3657, -82.414
1514.4058, -85.743
1514.4458, -84.268
1514.4858, -81.056
1514.5258, -88.433
1514.5658, -82.976
1514.6058, -83.367
1514.6459, -83.624
1514.6859, -82.752
1514.7259, -83.488
1514.7659, -85.046
1514.8059, -83.138
1514.8459, -81.610
1514.8860, -91.161
1514.9260, -84.396
1514.9660, -83.216
1515.0060, -85.433
1515.0460, -85.621
1515.0860, -81.644
1515.1261, -84.088
1515.1661, -82.813
1515.2061, -84.881
1515.2461, -85.968
1515.2861, -85.240
1515.3261, -86.505
1515.3661, -84.663
1515.4062, -83.843
1515.4462, -90.667
1515.4862, -82.919
1515.5262, -81.799
1515.5662, -82.007
1515.6062, -81.381
1515.6463, -86.799
1515.6863, -82.498
1515.7263, -85.446
1515.7663, -83.119
1515.8063, -84.362
1515.8463,-210.000
1515.8864, -80.675
1515.9264, -84.218
1515.9664,-210.000
1516.0064, -82.692
1516.0464, -85.903
1516.0864, -84.368
1516.1265, -83.724
1516.1665, -84.936
1516.2065, -86.821
1516.2465, -88.280
1516.2865, -84.030
1516.3265, -83.189
1516.3665, -86.254
1516.4066, -84.675
1516.4466, -83.768
1516.4866, -86.457
1516.5266, -82.431
1516.5666,-210.000
1516.6066, -83.152
1516.6467,-210.000
1516.6867, -82.941
1516.7267, -88.296
1516.7667, -84.702
1516.8067, -85.472
1516.8467, -83.382
1516.8868, -94.149
1516.9268, -83.194
1516.9668, -85.724
1517.0068, -88.745
1517.0468, -82.742
1517.0868, -83.903
1517.1269, -84.877
1517.1669, -82.709
1517.2069, -83.694
1517.2469,-210.000
1517.2869, -85.292
1517.3269, -87.394
1517.3669, -83.051
1517.4070,-210.000
1517.4470, -82.188
1517.4870, -86.075
1517.5270, -84.104
1517.5670, -84.311
1517.6070, -90.607
1517.6471, -83.894
1517.6871,-210.000
1517.7271, -84.898
1517.7671, -83.884
1517.8071, -87.065
1517.8471, -85.523
1517.8872, -82.482
1517.9272, -88.168
1517.9672, -86.032
1518.0072, -88.989
1518.0472,-210.000
1518.0872, -82.356
1518.1273, -84.165
1518.1673, -83.090
1518.2073,-210.000
1518.2473, -81.771
1518.2873, -83.340
1518.3273, -83.042
1518.3673, -89.590
1518.4074, -83.346
1518.4474, -85.754
1518.4874, -83.706
1518.5274, -84.571
1518.5674, -84.633
1518.6074, -84.175
1518.6475, -80.657
1518.6875,-210.000
1518.7275, -83.159
1518.7675, -84.924
1518.8075, -85.979
1518.8475, -93.035
1518.8876, -83.500
1518.9276, -83.894
1518.9676, -84.750
1519.0076, -86.467
1519.0476, -84.639
1519.0876, -91.020
1519.1277, -82.671
1519.1677, -83.912
1519.2077, -87.117
1519.2477, -84.734
1519.2877, -84.390
1519.3277, -83.601
1519.3677, -88.434
1519.4078, -82.062
1519.4478, -93.733
1519.4878, -83.577
1519.5278, -83.849
1519.5678, -84.873
1519.6078, -85.316
1519.6479, -87.811
1519.6879, -83.830
1519.7279, -87.772
1519.7679, -82.143
1519.8079, -86.752
1519.8479, -83.944
1519.8880,-104.983
1519.9280, -83.236
1519.9680, -84.086
1520.0080, -84.591
1520.0480, -84.200
1520.0880,-210.000
1520.1281, -82.577
1520.1681, -89.756
1520.2081, -81.252
1520.2481,-210.000
1520.2881, -91.018
1520.3281, -81.751
1520.3681, -85.409
1520.4082, -82.451
1520.4482, -82.027
1520.4882, -89.922
1520.5282, -85.191
1520.5682, -82.616
1520.6082, -85.960
1520.6483, -90.475
1520.6883, -80.426
1520.7283, -87.084
1520.7683, -80.720
1520.8083, -89.241
1520.8483, -81.716
1520.8884, -92.105
1520.9284, -81.168
1520.9684, -87.930
1521.0084, -83.459
1521.0484, -83.049
1521.0884, -83.868
1521.1285, -82.394
1521.1685, -84.040
1521.2085, -82.240
1521.2485, -83.496
1521.2885, -84.075
1521.3285, -81.826
1521.3685, -83.073
1521.4086, -83.204
1521.4486, -83.266
1521.4886, -88.923
1521.5286, -88.810
1521.5686, -92.228
1521.6086, -83.241
1521.6487, -81.576
1521.6887, -82.022
1521.7287, -88.777
1521.7687, -82.774
1521.8087, -83.162
1521.8487, -83.636
1521.8888, -85.299
1521.9288, -82.043
1521.9688, -83.687
1522.0088, -83.938
1522.0488, -82.466
1522.0888, -81.197
1522.1289,-210.000
1522.1689, -83.148
1522.2089, -83.912
1522.2489, -82.775
1522.2889, -81.731
1522.3289, -81.843
1522.3689, -84.433
1522.4090, -83.762
1522.4490, -85.251
1522.4890, -83.503
1522.5290, -85.107
1522.5690, -83.025
1522.6090, -82.769
1522.6491, -83.112
1522.6891, -79.858
1522.7291, -84.444
1522.7691, -80.551
1522.8091, -82.145
1522.8491, -80.884
1522.8892, -84.260
1522.9292, -79.400
1522.9692, -79.809
1523.0092, -80.569
1523.0492, -79.456
1523.0892, -80.056
1523.1293, -79.627
1523.1693, -79.578
1523.2093, -79.001
1523.2493, -80.214
1523.2893, -77.864
1523.3293, -78.991
1523.3693, -77.702
1523.4094, -79.189
1523.4494, -78.427
1523.4894, -77.272
1523.5294, -78.817
1523.5694, -76.620
1523.6094, -77.572
1523.6495, -77.242
1523.6895, -76.367
1523.7295, -77.362
1523.7695, -77.289
1523.8095, -76.905
1523.8495, -76.904
1523.8896, -77.422
1523.9296, -76.104
1523.9696, -76.737
1524.0096, -76.658
1524.0496, -76.148
1524.0896, -75.775
1524.1297, -75.902
1524.1697, -75.856
1524.2097, -75.277
1524.2497, -76.325
1524.2897, -75.720
1524.3297, -75.590
1524.3697, -75.279
1524.4098, -75.719
1524.4498, -74.521
1524.4898, -75.901
1524.5298, -75.659
1524.5698, -75.172
1524.6098, -75.409
1524.6499, -75.174
1524.6899, -75.146
1524.7299, -75.021
1524.7699, -75.981
1524.8099, -76.005
1524.8499, -75.024
1524.8900, -75.609
1524.9300, -75.196
1524.9700, -75.805
1525.0100, -75.309
1525.0500, -75.973
1525.0900, -75.914
1525.1301, -76.078
1525.1701, -76.406
1525.2101, -76.088
1525.2501, -76.659
1525.2901, -76.721
1525.3301, -76.054
1525.3701, -76.862
1525.4102, -77.189
1525.4502, -77.816
1525.4902, -76.347
1525.5302, -77.657
1525.5702, -76.895
1525.6102, -76.893
1525.6503, -77.245
1525.6903, -77.995
1525.7303, -76.743
1525.7703, -76.502
1525.8103, -76.902
1525.8503, -76.454
1525.8904, -75.882
1525.9304, -75.149
1525.9704, -74.799
1526.0104, -74.889
1526.0504, -74.576
1526.0904, -74.162
1526.1305, -73.552
1526.1705, -73.134
1526.2105, -72.664
1526.2505, -72.263
1526.2905, -71.708
1526.3305, -71.237
1526.3705, -70.976
1526.4106, -70.783
1526.4506, -70.239
1526.4906, -69.748
1526.5306, -69.467
1526.5706, -69.085
1526.6106, -68.761
1526.6507, -68.381
1526.6907, -68.225
1526.7307, -67.913
1526.7707, -67.475
1526.8107, -67.305
1526.8507, -67.036
1526.8908, -66.819
1526.9308, -66.679
1526.9708, -66.464
1527.0108, -66.196
1527.0508, -66.148
1527.0908, -65.994
1527.1309, -65.796
1527.1709, -65.533
1527.2109, -65.501
1527.2509, -65.359
1527.2909, -65.172
1527.3309, -65.058
1527.3709, -64.901
1527.4110, -64.827
1527.4510, -64.695
1527.4910, -64.644
1527.5310, -64.480
1527.5710, -64.424
1527.6110, -64.378
1527.6511, -64.277
1527.6911, -64.196
1527.7311, -64.190
1527.7711, -64.130
1527.8111, -63.996
1527.8511, -63.960
1527.8912, -63.896
1527.9312, -63.883
1527.9712, -63.776
1528.0112, -63.721
1528.0512, -63.684
1528.0912, -63.566
1528.1313, -63.532
1528.1713, -63.454
1528.2113, -63.345
1528.2513, -63.247
1528.2913, -63.178
1528.3313, -63.109
1528.3713, -62.976
1528.4114, -62.875
1528.4514, -62.711
1528.4914, -62.605
1528.5314, -62.502
1528.5714, -62.328
1528.6114, -62.192
1528.6515, -62.099
1528.6915, -61.951
1528.7315, -61.878
1528.7715, -61.769
1528.8115, -61.640
1528.8515, -61.589
1528.8916, -61.515
1528.9316, -61.477
1528.9716, -61.426
1529.0116, -61.377
1529.0516, -61.367
1529.0916, -61.338
1529.1317, -61.312
1529.1717, -61.300
1529.2117, -61.303
1529.2517, -61.288
1529.2917, -61.291
1529.3317, -61.280
1529.3717, -61.286
1529.4118, -61.277
1529.4518, -61.257
1529.4918, -61.296
1529.5318, -61.253
1529.5718, -61.271
1529.6118, -61.263
1529.6519, -61.265
1529.6919, -61.241
1529.7319, -61.185
1529.7719, -61.167
1529.8119, -61.119
1529.8519, -61.075
1529.8920, -61.017
1529.9320, -60.956
1529.9720, -60.896
1530.0120, -60.833
1530.0520, -60.764
1530.0920, -60.695
1530.1321, -60.614
1530.1721, -60.558
1530.2121, -60.474
1530.2521, -60.417
1530.2921, -60.304
1530.3321, -60.237
1530.3721, -60.157
1530.4122, -60.127
1530.4522, -60.075
1530.4922, -60.026
1530.5322, -60.001
1530.5722, -59.982
1530.6122, -59.987
1530.6523, -59.978
1530.6923, -59.997
1530.7323, -60.047
1530.7723, -60.090
1530.8123, -60.165
1530.8523, -60.253
1530.8924, -60.364
1530.9324, -60.485
1530.9724, -60.672
1531.0124, -60.815
1531.0524, -61.004
1531.0924, -61.217
1531.1325, -61.481
1531.1725, -61.739
1531.2125, -62.059
1531.2525, -62.316
1531.2925, -62.617
1531.3325, -62.927
1531.3725, -63.298
1531.4126, -63.643
1531.4526, -63.934
1531.4926, -64.381
1531.5326, -64.771
1531.5726, -65.115
1531.6126, -65.510
1531.6527, -65.931
1531.6927, -66.336
1531.7327, -66.576
1531.7727, -66.968
1531.8127, -67.120
1531.8527, -67.363
1531.8928, -67.496
1531.9328, -67.385
1531.9728, -67.426
1532.0128, -67.317
1532.0528, -67.234
1532.0928, -66.978
1532.1329, -66.788
1532.1729, -66.589
1532.2129, -66.383
1532.2529, -66.177
1532.2929, -65.960
1532.3329, -65.830
1532.3729, -65.615
1532.4130, -65.600
1532.4530, -65.438
1532.4930, -65.286
1532.5330, -65.210
1532.5730, -65.263
1532.6130, -65.196
1532.6531, -65.228
1532.6931, -65.247
1532.7331, -65.190
1532.7731, -65.345
1532.8131, -65.392
1532.8531, -65.489
1532.8932, -65.541
1532.9332, -65.730
1532.9732, -65.768
1533.0132, -65.855
1533.0532, -66.019
1533.0932, -66.049
1533.1333, -66.116
1533.1733, -66.179
1533.2133, -66.351
1533.2533, -66.397
1533.2933, -66.452
1533.3333, -66.582
1533.3733, -66.688
1533.4134, -66.876
1533.4534, -66.916
1533.4934, -67.021
1533.5334, -67.099
1533.5734, -67.254
1533.6134, -67.379
1533.6535, -67.374
1533.6935, -67.406
1533.7335, -67.533
1533.7735, -67.486
1533.8135, -67.502
1533.8535, -67.426
1533.8936, -67.430
1533.9336, -67.460
1533.9736, -67.312
1534.0136, -67.232
1534.0536, -67.252
1534.0936, -67.125
1534.1337, -67.184
1534.1737, -67.016
1534.2137, -66.881
1534.2537, -66.902
1534.2937, -66.747
1534.3337, -66.698
1534.3737, -66.619
1534.4138, -66.504
1534.4538, -66.368
1534.4938, -66.395
1534.5338, -66.260
1534.5738, -66.194
1534.6138, -66.179
1534.6539, -66.045
1534.6939, -65.970
1534.7339, -65.993
1534.7739, -65.900
1534.8139, -65.864
1534.8539, -65.835
1534.8940, -65.805
1534.9340, -65.805
1534.9740, -65.865
1535.0140, -65.808
1535.0540, -65.753
1535.0940, -65.770
1535.1341, -65.862
1535.1741, -65.899
1535.2141, -66.040
1535.2541, -65.902
1535.2941, -66.038
1535.3341, -66.109
1535.3741, -66.251
1535.4142, -66.365
1535.4542, -66.365
1535.4942, -66.416
1535.5342, -66.559
1535.5742, -66.628
1535.6142, -66.862
1535.6543, -66.849
1535.6943, -67.004
1535.7343, -67.124
1535.7743, -67.148
1535.8143, -67.317
1535.8543, -67.515
1535.8944, -67.551
1535.9344, -67.585
1535.9744, -67.703
1536.0144, -67.964
1536.0544, -67.956
1536.0944, -68.098
1536.1345, -68.268
1536.1745, -68.255
1536.2145, -68.344
1536.2545, -68.573
1536.2945, -68.498
1536.3345, -68.706
1536.3745, -68.795
1536.4146, -68.854
1536.4546, -69.033
1536.4946, -69.049
1536.5346, -69.149
1536.5746, -69.270
1536.6146, -69.544
1536.6547, -69.471
1536.6947, -69.784
1536.7347, -69.525
1536.7747, -69.818
1536.8147, -69.883
1536.8547, -69.927
1536.8948, -70.167
1536.9348, -70.099
1536.9748, -70.132
1537.0148, -70.258
1537.0548, -70.411
1537.0948, -70.508
1537.1349, -70.486
1537.1749, -70.755
1537.2149, -70.850
1537.2549, -70.939
1537.2949, -71.175
1537.3349, -71.123
1537.3749, -70.964
1537.4150, -71.194
1537.4550, -71.457
1537.4950, -71.411
1537.5350, -71.758
1537.5750, -71.940
1537.6150, -71.773
1537.6551, -72.192
1537.6951, -72.146
1537.7351, -72.156
1537.7751, -72.525
1537.8151, -72.740
1537.8551, -72.507
1537.8952, -72.770
1537.9352, -73.058
1537.9752, -73.435
1538.0152, -73.064
1538.0552, -74.010
1538.0952, -73.974
1538.1353, -74.010
1538.1753, -74.400
1538.2153, -74.722
1538.2553, -74.665
1538.2953, -74.654
1538.3353, -75.571
1538.3754, -75.572
1538.4154, -75.722
1538.4554, -76.208
1538.4954, -76.610
1538.5354, -77.587
1538.5754, -78.625
1538.6154, -77.024
1538.6555, -77.368
1538.6955, -78.378
1538.7355, -77.373
1538.7755, -78.790
1538.8155, -78.941
1538.8555, -78.604
1538.8956, -78.579
1538.9356, -78.038
1538.9756, -79.168
1539.0156, -78.062
1539.0556, -79.714
1539.0956, -76.861
1539.1357, -78.798
1539.1757, -77.700
1539.2157, -76.464
1539.2557, -76.886
1539.2957, -75.911
1539.3357, -75.445
1539.3758, -75.838
1539.4158, -75.075
1539.4558, -74.908
1539.4958, -74.462
1539.5358, -74.365
1539.5758, -73.485
1539.6158, -73.971
1539.6559, -73.752
1539.6959, -73.594
1539.7359, -73.068
1539.7759, -72.657
1539.8159, -72.870
1539.8559, -72.610
1539.8960, -72.934
1539.9360, -72.627
1539.9760, -72.474
1540.0160, -72.694
1540.0560, -72.637
1540.0960, -72.705
1540.1361, -72.516
1540.1761, -72.483
1540.2161, -72.678
1540.2561, -72.649
1540.2961, -73.047
1540.3361, -72.814
1540.3762, -72.507
1540.4162, -72.796
1540.4562, -72.847
1540.4962, -72.975
1540.5362, -72.681
1540.5762, -72.992
1540.6162, -72.530
1540.6563, -73.155
1540.6963, -72.677
1540.7363, -72.886
1540.7763, -72.617
1540.8163, -72.498
1540.8563, -72.385
1540.8964, -72.052
1540.9364, -72.240
1540.9764, -71.904
1541.0164, -72.001
1541.0564, -71.669
1541.0964, -71.553
1541.1365, -71.172
1541.1765, -71.538
1541.2165, -70.925
1541.2565, -70.705
