70BCSV 	
// AQ6370B OPTICAL SPECTRUM ANALYZER //                 
25
"CTRWL",1550.000000
"SPAN", 100.000000
"START WL",1500.000000
"STOP WL",1600.000000
"WLFREQ", 0
"REFL",-58.5
"LSCL", 5.0
"RESLN",0.500
"AVG",   1
"SMPLAUTO",      0
"SMPL",       2500
"SMPLINTVL",0.0400
"HIGH1"
"MEAS"
"LSUNT",0
"NMSKH","OFF"
"RESCOR",0
"RESPARM", 9740
"FREQPARM", 9740






"[TRACE DATA]"
1500.0000,-210.000
1500.0400,-210.000
1500.0800,-210.000
1500.1200,-210.000
1500.1601,-210.000
1500.2001,-210.000
1500.2401,-210.000
1500.2801,-210.000
1500.3201,-210.000
1500.3601,-210.000
1500.4002,-210.000
1500.4402,-210.000
1500.4802,-210.000
1500.5202,-210.000
1500.5602,-210.000
1500.6002,-210.000
1500.6403,-210.000
1500.6803,-210.000
1500.7203,-210.000
1500.7603,-210.000
1500.8003,-210.000
1500.8403,-210.000
1500.8804,-210.000
1500.9204,-210.000
1500.9604,-210.000
1501.0004,-210.000
1501.0404,-210.000
1501.0804,-210.000
1501.1204,-210.000
1501.1605,-210.000
1501.2005,-210.000
1501.2405,-210.000
1501.2805,-210.000
1501.3205,-210.000
1501.3605,-210.000
1501.4006,-210.000
1501.4406,-210.000
1501.4806,-210.000
1501.5206,-210.000
1501.5606,-210.000
1501.6006,-101.949
1501.6407,-210.000
1501.6807,-210.000
1501.7207,-210.000
1501.7607,-210.000
1501.8007,-210.000
1501.8407,-210.000
1501.8808,-210.000
1501.9208,-210.000
1501.9608,-210.000
1502.0008,-210.000
1502.0408,-210.000
1502.0808,-210.000
1502.1208,-210.000
1502.1609,-210.000
1502.2009,-210.000
1502.2409,-210.000
1502.2809,-210.000
1502.3209,-210.000
1502.3609, -92.282
1502.4010,-210.000
1502.4410,-210.000
1502.4810,-210.000
1502.5210,-210.000
1502.5610,-210.000
1502.6010,-210.000
1502.6411,-210.000
1502.6811,-210.000
1502.7211,-210.000
1502.7611,-210.000
1502.8011,-210.000
1502.8411,-210.000
1502.8812,-210.000
1502.9212,-210.000
1502.9612,-210.000
1503.0012,-210.000
1503.0412,-210.000
1503.0812,-210.000
1503.1212,-210.000
1503.1613,-210.000
1503.2013,-210.000
1503.2413,-210.000
1503.2813,-210.000
1503.3213,-210.000
1503.3613,-210.000
1503.4014,-210.000
1503.4414,-210.000
1503.4814,-210.000
1503.5214,-210.000
1503.5614,-210.000
1503.6014,-210.000
1503.6415,-210.000
1503.6815,-210.000
1503.7215,-210.000
1503.7615,-210.000
1503.8015,-210.000
1503.8415,-210.000
1503.8816,-210.000
1503.9216,-210.000
1503.9616,-210.000
1504.0016,-210.000
1504.0416,-210.000
1504.0816,-210.000
1504.1216,-210.000
1504.1617,-210.000
1504.2017,-210.000
1504.2417,-210.000
1504.2817,-210.000
1504.3217,-210.000
1504.3617,-210.000
1504.4018,-210.000
1504.4418,-100.785
1504.4818,-210.000
1504.5218,-210.000
1504.5618,-210.000
1504.6018,-210.000
1504.6419,-210.000
1504.6819,-210.000
1504.7219,-210.000
1504.7619,-210.000
1504.8019,-210.000
1504.8419,-210.000
1504.8820,-210.000
1504.9220,-210.000
1504.9620,-210.000
1505.0020,-210.000
1505.0420,-210.000
1505.0820,-210.000
1505.1220,-210.000
1505.1621,-210.000
1505.2021,-210.000
1505.2421,-210.000
1505.2821,-210.000
1505.3221,-210.000
1505.3621,-210.000
1505.4022,-210.000
1505.4422,-210.000
1505.4822,-210.000
1505.5222,-210.000
1505.5622,-210.000
1505.6022,-210.000
1505.6423,-210.000
1505.6823,-210.000
1505.7223,-210.000
1505.7623,-210.000
1505.8023,-210.000
1505.8423,-210.000
1505.8824,-210.000
1505.9224,-210.000
1505.9624,-210.000
1506.0024,-210.000
1506.0424,-210.000
1506.0824,-210.000
1506.1224,-210.000
1506.1625,-210.000
1506.2025, -85.646
1506.2425,-210.000
1506.2825,-210.000
1506.3225,-210.000
1506.3625,-210.000
1506.4026,-210.000
1506.4426,-210.000
1506.4826,-210.000
1506.5226,-210.000
1506.5626,-210.000
1506.6026,-210.000
1506.6427,-210.000
1506.6827,-210.000
1506.7227,-210.000
1506.7627,-210.000
1506.8027,-210.000
1506.8427,-210.000
1506.8828,-210.000
1506.9228,-210.000
1506.9628,-210.000
1507.0028,-210.000
1507.0428,-210.000
1507.0828,-210.000
1507.1228,-210.000
1507.1629,-210.000
1507.2029,-210.000
1507.2429,-210.000
1507.2829,-210.000
1507.3229,-210.000
1507.3629,-210.000
1507.4030,-210.000
1507.4430,-210.000
1507.4830,-210.000
1507.5230,-210.000
1507.5630,-210.000
1507.6030,-210.000
1507.6431,-210.000
1507.6831,-210.000
1507.7231,-210.000
1507.7631,-210.000
1507.8031,-210.000
1507.8431,-210.000
1507.8832,-210.000
1507.9232,-210.000
1507.9632,-210.000
1508.0032,-210.000
1508.0432, -87.776
1508.0832,-210.000
1508.1232,-210.000
1508.1633,-210.000
1508.2033,-210.000
1508.2433,-210.000
1508.2833,-210.000
1508.3233,-210.000
1508.3633,-210.000
1508.4034,-210.000
1508.4434,-210.000
1508.4834,-210.000
1508.5234,-210.000
1508.5634,-210.000
1508.6034,-210.000
1508.6435,-210.000
1508.6835,-210.000
1508.7235,-210.000
1508.7635,-210.000
1508.8035,-210.000
1508.8435,-210.000
1508.8836,-210.000
1508.9236,-210.000
1508.9636,-210.000
1509.0036,-210.000
1509.0436, -95.912
1509.0836,-210.000
1509.1236,-210.000
1509.1637,-210.000
1509.2037,-210.000
1509.2437,-210.000
1509.2837,-210.000
1509.3237,-210.000
1509.3637,-210.000
1509.4038,-210.000
1509.4438,-210.000
1509.4838,-210.000
1509.5238,-210.000
1509.5638,-210.000
1509.6038,-124.356
1509.6439,-210.000
1509.6839,-210.000
1509.7239,-210.000
1509.7639,-210.000
1509.8039,-210.000
1509.8439,-210.000
1509.8840,-210.000
1509.9240,-210.000
1509.9640,-210.000
1510.0040,-210.000
1510.0440,-210.000
1510.0840,-210.000
1510.1240,-210.000
1510.1641,-210.000
1510.2041,-210.000
1510.2441,-210.000
1510.2841,-210.000
1510.3241,-210.000
1510.3641,-210.000
1510.4042,-210.000
1510.4442,-210.000
1510.4842,-210.000
1510.5242,-210.000
1510.5642,-210.000
1510.6042,-210.000
1510.6443,-210.000
1510.6843,-210.000
1510.7243,-210.000
1510.7643,-210.000
1510.8043,-210.000
1510.8443,-210.000
1510.8844,-210.000
1510.9244,-210.000
1510.9644,-210.000
1511.0044,-210.000
1511.0444,-210.000
1511.0844,-210.000
1511.1244,-210.000
1511.1645,-210.000
1511.2045,-210.000
1511.2445,-210.000
1511.2845, -85.969
1511.3245,-210.000
1511.3645,-210.000
1511.4046,-210.000
1511.4446,-210.000
1511.4846,-210.000
1511.5246,-210.000
1511.5646,-210.000
1511.6046,-210.000
1511.6447,-210.000
1511.6847,-210.000
1511.7247,-210.000
1511.7647,-210.000
1511.8047,-210.000
1511.8447,-210.000
1511.8848,-210.000
1511.9248,-210.000
1511.9648,-210.000
1512.0048,-210.000
1512.0448,-210.000
1512.0848,-210.000
1512.1248,-210.000
1512.1649,-210.000
1512.2049,-210.000
1512.2449,-210.000
1512.2849,-210.000
1512.3249,-210.000
1512.3649,-210.000
1512.4050,-210.000
1512.4450,-210.000
1512.4850,-210.000
1512.5250,-210.000
1512.5650,-210.000
1512.6050,-210.000
1512.6451,-210.000
1512.6851,-210.000
1512.7251,-210.000
1512.7651,-210.000
1512.8051,-210.000
1512.8451,-210.000
1512.8852,-210.000
1512.9252,-210.000
1512.9652,-210.000
1513.0052,-210.000
1513.0452,-210.000
1513.0852,-210.000
1513.1253,-210.000
1513.1653,-210.000
1513.2053,-210.000
1513.2453,-210.000
1513.2853,-210.000
1513.3253,-210.000
1513.3653,-210.000
1513.4054,-210.000
1513.4454,-210.000
1513.4854,-210.000
1513.5254,-210.000
1513.5654,-210.000
1513.6054,-210.000
1513.6455,-210.000
1513.6855,-210.000
1513.7255,-210.000
1513.7655,-210.000
1513.8055,-210.000
1513.8455,-210.000
1513.8856,-210.000
1513.9256,-210.000
1513.9656,-210.000
1514.0056,-210.000
1514.0456,-210.000
1514.0856, -90.973
1514.1257,-210.000
1514.1657,-210.000
1514.2057,-210.000
1514.2457,-210.000
1514.2857,-210.000
1514.3257,-210.000
1514.3657,-210.000
1514.4058,-210.000
1514.4458,-210.000
1514.4858,-210.000
1514.5258, -93.872
1514.5658,-210.000
1514.6058,-210.000
1514.6459,-210.000
1514.6859,-210.000
1514.7259,-210.000
1514.7659,-210.000
1514.8059,-210.000
1514.8459,-210.000
1514.8860,-210.000
1514.9260,-210.000
1514.9660,-210.000
1515.0060,-210.000
1515.0460,-210.000
1515.0860,-210.000
1515.1261,-210.000
1515.1661,-210.000
1515.2061,-210.000
1515.2461,-210.000
1515.2861, -90.832
1515.3261,-210.000
1515.3661,-210.000
1515.4062,-210.000
1515.4462,-210.000
1515.4862,-210.000
1515.5262,-210.000
1515.5662,-210.000
1515.6062,-210.000
1515.6463,-210.000
1515.6863,-210.000
1515.7263,-210.000
1515.7663,-210.000
1515.8063,-210.000
1515.8463,-210.000
1515.8864,-210.000
1515.9264,-210.000
1515.9664,-210.000
1516.0064,-210.000
1516.0464,-210.000
1516.0864,-210.000
1516.1265,-210.000
1516.1665,-210.000
1516.2065,-210.000
1516.2465,-210.000
1516.2865,-210.000
1516.3265,-210.000
1516.3665,-210.000
1516.4066,-210.000
1516.4466,-210.000
1516.4866,-210.000
1516.5266,-210.000
1516.5666,-210.000
1516.6066,-210.000
1516.6467,-210.000
1516.6867,-210.000
1516.7267,-210.000
1516.7667,-210.000
1516.8067,-210.000
1516.8467,-210.000
1516.8868,-210.000
1516.9268, -87.241
1516.9668,-210.000
1517.0068,-210.000
1517.0468,-210.000
1517.0868,-210.000
1517.1269,-210.000
1517.1669,-210.000
1517.2069,-210.000
1517.2469,-210.000
1517.2869,-210.000
1517.3269,-210.000
1517.3669,-210.000
1517.4070,-210.000
1517.4470,-210.000
1517.4870,-210.000
1517.5270,-210.000
1517.5670,-210.000
1517.6070,-210.000
1517.6471,-210.000
1517.6871,-210.000
1517.7271,-210.000
1517.7671,-210.000
1517.8071,-210.000
1517.8471,-210.000
1517.8872,-210.000
1517.9272,-210.000
1517.9672,-210.000
1518.0072,-210.000
1518.0472, -94.971
1518.0872,-210.000
1518.1273,-210.000
1518.1673,-210.000
1518.2073,-210.000
1518.2473,-210.000
1518.2873,-210.000
1518.3273,-210.000
1518.3673,-210.000
1518.4074,-210.000
1518.4474,-210.000
1518.4874,-210.000
1518.5274,-210.000
1518.5674,-210.000
1518.6074,-210.000
1518.6475,-210.000
1518.6875,-210.000
1518.7275,-210.000
1518.7675,-210.000
1518.8075,-210.000
1518.8475, -93.247
1518.8876,-210.000
1518.9276,-210.000
1518.9676,-210.000
1519.0076,-210.000
1519.0476,-210.000
1519.0876,-210.000
1519.1277,-210.000
1519.1677,-210.000
1519.2077,-210.000
1519.2477,-210.000
1519.2877,-210.000
1519.3277,-210.000
1519.3677,-210.000
1519.4078,-210.000
1519.4478,-210.000
1519.4878,-210.000
1519.5278,-210.000
1519.5678, -85.126
1519.6078,-210.000
1519.6479,-210.000
1519.6879,-210.000
1519.7279,-210.000
1519.7679,-210.000
1519.8079,-210.000
1519.8479,-210.000
1519.8880,-210.000
1519.9280,-210.000
1519.9680,-210.000
1520.0080,-210.000
1520.0480,-210.000
1520.0880,-210.000
1520.1281,-210.000
1520.1681,-210.000
1520.2081,-210.000
1520.2481,-210.000
1520.2881,-210.000
1520.3281,-210.000
1520.3681,-210.000
1520.4082,-210.000
1520.4482,-210.000
1520.4882,-210.000
1520.5282,-210.000
1520.5682,-210.000
1520.6082, -89.077
1520.6483,-210.000
1520.6883,-210.000
1520.7283,-210.000
1520.7683,-210.000
1520.8083, -95.453
1520.8483,-210.000
1520.8884,-210.000
1520.9284,-210.000
1520.9684,-210.000
1521.0084,-210.000
1521.0484,-210.000
1521.0884,-210.000
1521.1285,-210.000
1521.1685,-210.000
1521.2085,-210.000
1521.2485,-210.000
1521.2885,-210.000
1521.3285,-210.000
1521.3685,-210.000
1521.4086,-210.000
1521.4486,-210.000
1521.4886,-210.000
1521.5286,-210.000
1521.5686,-210.000
1521.6086,-210.000
1521.6487, -98.059
1521.6887,-210.000
1521.7287,-210.000
1521.7687,-210.000
1521.8087,-210.000
1521.8487,-210.000
1521.8888,-210.000
1521.9288,-210.000
1521.9688,-210.000
1522.0088,-210.000
1522.0488,-210.000
1522.0888,-210.000
1522.1289,-210.000
1522.1689,-210.000
1522.2089,-210.000
1522.2489,-210.000
1522.2889,-210.000
1522.3289,-210.000
1522.3689, -89.239
1522.4090,-210.000
1522.4490,-210.000
1522.4890,-210.000
1522.5290,-210.000
1522.5690,-210.000
1522.6090,-210.000
1522.6491,-107.711
1522.6891,-210.000
1522.7291, -87.940
1522.7691,-210.000
1522.8091,-210.000
1522.8491,-210.000
1522.8892, -85.744
1522.9292,-210.000
1522.9692,-210.000
1523.0092,-210.000
1523.0492, -87.146
1523.0892,-210.000
1523.1293,-210.000
1523.1693,-210.000
1523.2093, -91.456
1523.2493, -95.831
1523.2893,-210.000
1523.3293,-210.000
1523.3693,-210.000
1523.4094,-210.000
1523.4494, -87.854
1523.4894, -89.809
1523.5294, -86.035
1523.5694,-210.000
1523.6094, -87.197
1523.6495, -90.707
1523.6895, -88.240
1523.7295, -90.836
1523.7695,-210.000
1523.8095, -82.275
1523.8495, -90.530
1523.8896, -88.637
1523.9296, -90.073
1523.9696, -97.676
1524.0096,-210.000
1524.0496, -84.892
1524.0896,-210.000
1524.1297, -90.558
1524.1697, -86.548
1524.2097, -87.295
1524.2497,-210.000
1524.2897, -82.930
1524.3297, -86.688
1524.3697,-210.000
1524.4098, -85.616
1524.4498, -84.419
1524.4898,-210.000
1524.5298, -83.662
1524.5698, -84.167
1524.6098,-210.000
1524.6499,-210.000
1524.6899, -83.225
1524.7299,-210.000
1524.7699, -82.651
1524.8099, -86.293
1524.8499, -88.535
1524.8900, -84.067
1524.9300, -86.677
1524.9700, -83.938
1525.0100, -88.773
1525.0500, -89.242
1525.0900, -81.084
1525.1301, -84.785
1525.1701, -80.035
1525.2101, -80.628
1525.2501, -81.497
1525.2901, -80.647
1525.3301, -78.419
1525.3701, -80.771
1525.4102, -78.589
1525.4502, -80.357
1525.4902, -78.688
1525.5302, -77.728
1525.5702, -76.842
1525.6102, -76.080
1525.6503, -77.313
1525.6903, -77.361
1525.7303, -76.160
1525.7703, -75.333
1525.8103, -76.123
1525.8503, -75.302
1525.8904, -75.172
1525.9304, -74.332
1525.9704, -74.991
1526.0104, -74.158
1526.0504, -73.973
1526.0904, -73.501
1526.1305, -74.063
1526.1705, -72.966
1526.2105, -72.434
1526.2505, -72.544
1526.2905, -72.388
1526.3305, -71.938
1526.3705, -71.732
1526.4106, -71.610
1526.4506, -71.486
1526.4906, -71.251
1526.5306, -71.137
1526.5706, -70.993
1526.6106, -70.883
1526.6507, -70.699
1526.6907, -70.625
1526.7307, -70.586
1526.7707, -70.364
1526.8107, -70.185
1526.8507, -70.166
1526.8908, -70.025
1526.9308, -69.823
1526.9708, -69.832
1527.0108, -69.739
1527.0508, -69.503
1527.0908, -69.580
1527.1309, -69.284
1527.1709, -69.225
1527.2109, -69.016
1527.2509, -69.142
1527.2909, -69.118
1527.3309, -68.773
1527.3709, -68.884
1527.4110, -68.686
1527.4510, -68.732
1527.4910, -68.748
1527.5310, -68.678
1527.5710, -68.634
1527.6110, -68.549
1527.6511, -68.563
1527.6911, -68.613
1527.7311, -68.609
1527.7711, -68.502
1527.8111, -68.713
1527.8511, -68.642
1527.8912, -68.659
1527.9312, -68.727
1527.9712, -68.834
1528.0112, -68.931
1528.0512, -68.786
1528.0912, -68.911
1528.1313, -68.946
1528.1713, -69.104
1528.2113, -69.208
1528.2513, -69.269
1528.2913, -69.292
1528.3313, -69.300
1528.3713, -69.274
1528.4114, -69.696
1528.4514, -69.553
1528.4914, -69.876
1528.5314, -70.179
1528.5714, -69.885
1528.6114, -70.186
1528.6515, -70.468
1528.6915, -70.526
1528.7315, -70.790
1528.7715, -70.997
1528.8115, -70.969
1528.8515, -71.282
1528.8916, -71.412
1528.9316, -71.433
1528.9716, -71.188
1529.0116, -71.396
1529.0516, -71.195
1529.0916, -71.109
1529.1317, -70.709
1529.1717, -70.575
1529.2117, -70.200
1529.2517, -70.141
1529.2917, -69.558
1529.3317, -69.295
1529.3717, -68.958
1529.4118, -68.847
1529.4518, -68.412
1529.4918, -67.955
1529.5318, -67.889
1529.5718, -67.647
1529.6118, -67.309
1529.6519, -67.137
1529.6919, -66.948
1529.7319, -66.698
1529.7719, -66.567
1529.8119, -66.337
1529.8519, -66.148
1529.8920, -65.976
1529.9320, -65.723
1529.9720, -65.539
1530.0120, -65.391
1530.0520, -65.211
1530.0920, -64.992
1530.1321, -64.845
1530.1721, -64.693
1530.2121, -64.506
1530.2521, -64.437
1530.2921, -64.274
1530.3321, -64.167
1530.3721, -64.115
1530.4122, -64.026
1530.4522, -63.975
1530.4922, -63.873
1530.5322, -63.839
1530.5722, -63.803
1530.6122, -63.802
1530.6523, -63.740
1530.6923, -63.807
1530.7323, -63.847
1530.7723, -63.926
1530.8123, -63.945
1530.8523, -64.094
1530.8924, -64.244
1530.9324, -64.428
1530.9724, -64.623
1531.0124, -64.822
1531.0524, -65.010
1531.0924, -65.190
1531.1325, -65.543
1531.1725, -65.643
1531.2125, -65.864
1531.2525, -66.117
1531.2925, -66.336
1531.3325, -66.487
1531.3725, -66.679
1531.4126, -66.725
1531.4526, -66.819
1531.4926, -66.841
1531.5326, -66.830
1531.5726, -66.842
1531.6126, -66.717
1531.6527, -66.566
1531.6927, -66.476
1531.7327, -66.245
1531.7727, -66.006
1531.8127, -65.883
1531.8527, -65.668
1531.8928, -65.411
1531.9328, -65.228
1531.9728, -65.094
1532.0128, -64.788
1532.0528, -64.630
1532.0928, -64.423
1532.1329, -64.207
1532.1729, -63.965
1532.2129, -63.800
1532.2529, -63.632
1532.2929, -63.422
1532.3329, -63.237
1532.3729, -63.067
1532.4130, -62.843
1532.4530, -62.687
1532.4930, -62.528
1532.5330, -62.357
1532.5730, -62.203
1532.6130, -62.071
1532.6531, -61.940
1532.6931, -61.770
1532.7331, -61.661
1532.7731, -61.566
1532.8131, -61.434
1532.8531, -61.343
1532.8932, -61.222
1532.9332, -61.195
1532.9732, -61.126
1533.0132, -61.033
1533.0532, -61.005
1533.0932, -60.988
1533.1333, -60.968
1533.1733, -60.979
1533.2133, -61.004
1533.2533, -61.000
1533.2933, -61.087
1533.3333, -61.133
1533.3733, -61.182
1533.4134, -61.276
1533.4534, -61.355
1533.4934, -61.462
1533.5334, -61.570
1533.5734, -61.653
1533.6134, -61.771
1533.6535, -61.877
1533.6935, -62.018
1533.7335, -62.100
1533.7735, -62.249
1533.8135, -62.329
1533.8535, -62.454
1533.8936, -62.528
1533.9336, -62.558
1533.9736, -62.616
1534.0136, -62.624
1534.0536, -62.656
1534.0936, -62.607
1534.1337, -62.667
1534.1737, -62.620
1534.2137, -62.581
1534.2537, -62.605
1534.2937, -62.559
1534.3337, -62.527
1534.3737, -62.492
1534.4138, -62.471
1534.4538, -62.405
1534.4938, -62.368
1534.5338, -62.305
1534.5738, -62.312
1534.6138, -62.262
1534.6539, -62.216
1534.6939, -62.150
1534.7339, -62.098
1534.7739, -62.063
1534.8139, -62.045
1534.8539, -61.983
1534.8940, -61.982
1534.9340, -61.916
1534.9740, -61.958
1535.0140, -61.874
1535.0540, -61.895
1535.0940, -61.830
1535.1341, -61.820
1535.1741, -61.851
1535.2141, -61.793
1535.2541, -61.803
1535.2941, -61.797
1535.3341, -61.758
1535.3741, -61.747
1535.4142, -61.750
1535.4542, -61.749
1535.4942, -61.756
1535.5342, -61.772
1535.5742, -61.768
1535.6142, -61.811
1535.6543, -61.816
1535.6943, -61.835
1535.7343, -61.903
1535.7743, -61.896
1535.8143, -61.948
1535.8543, -61.994
1535.8944, -62.082
1535.9344, -62.173
1535.9744, -62.199
1536.0144, -62.337
1536.0544, -62.449
1536.0944, -62.542
1536.1345, -62.654
1536.1745, -62.756
1536.2145, -62.888
1536.2545, -62.960
1536.2945, -63.124
1536.3345, -63.198
1536.3745, -63.387
1536.4146, -63.437
1536.4546, -63.636
1536.4946, -63.726
1536.5346, -63.931
1536.5746, -64.062
1536.6146, -64.212
1536.6547, -64.339
1536.6947, -64.554
1536.7347, -64.651
1536.7747, -64.842
1536.8147, -64.929
1536.8547, -65.055
1536.8948, -65.186
1536.9348, -65.290
1536.9748, -65.419
1537.0148, -65.462
1537.0548, -65.548
1537.0948, -65.584
1537.1349, -65.622
1537.1749, -65.676
1537.2149, -65.652
1537.2549, -65.730
1537.2949, -65.693
1537.3349, -65.769
1537.3749, -65.826
1537.4150, -65.789
1537.4550, -65.664
1537.4950, -65.682
1537.5350, -65.616
1537.5750, -65.640
1537.6150, -65.600
1537.6551, -65.581
1537.6951, -65.486
1537.7351, -65.449
1537.7751, -65.382
1537.8151, -65.381
1537.8551, -65.369
1537.8952, -65.292
1537.9352, -65.265
1537.9752, -65.226
1538.0152, -65.194
1538.0552, -65.251
1538.0952, -65.281
1538.1353, -65.274
1538.1753, -65.358
1538.2153, -65.376
1538.2553, -65.366
1538.2953, -65.451
1538.3353, -65.551
1538.3754, -65.568
1538.4154, -65.617
1538.4554, -65.725
1538.4954, -65.693
1538.5354, -65.830
1538.5754, -65.956
1538.6154, -65.942
1538.6555, -66.067
1538.6955, -66.065
1538.7355, -66.215
1538.7755, -66.290
1538.8155, -66.403
1538.8555, -66.530
1538.8956, -66.581
1538.9356, -66.710
1538.9756, -66.763
1539.0156, -66.925
1539.0556, -66.946
1539.0956, -67.132
1539.1357, -67.214
1539.1757, -67.438
1539.2157, -67.525
1539.2557, -67.710
1539.2957, -67.807
1539.3357, -67.883
1539.3758, -67.997
1539.4158, -68.206
1539.4558, -68.260
1539.4958, -68.320
1539.5358, -68.419
1539.5758, -68.472
1539.6158, -68.500
1539.6559, -68.438
1539.6959, -68.471
1539.7359, -68.385
1539.7759, -68.079
1539.8159, -68.004
1539.8559, -67.921
1539.8960, -67.647
1539.9360, -67.478
1539.9760, -67.199
1540.0160, -67.053
1540.0560, -66.798
1540.0960, -66.626
1540.1361, -66.438
1540.1761, -66.197
1540.2161, -66.008
1540.2561, -65.926
1540.2961, -65.703
1540.3361, -65.482
1540.3762, -65.367
1540.4162, -65.160
1540.4562, -65.026
1540.4962, -64.892
1540.5362, -64.789
1540.5762, -64.616
1540.6162, -64.591
1540.6563, -64.443
1540.6963, -64.348
1540.7363, -64.168
1540.7763, -64.233
1540.8163, -64.094
1540.8563, -64.038
1540.8964, -64.017
1540.9364, -63.999
1540.9764, -63.989
1541.0164, -64.000
1541.0564, -63.930
1541.0964, -64.030
1541.1365, -63.957
1541.1765, -64.000
1541.2165, -64.035
1541.2565, -64.046
