70BCSV 	
// AQ6370B OPTICAL SPECTRUM ANALYZER //                 
25
"CTRWL",1550.000000
"SPAN", 100.000000
"START WL",1500.000000
"STOP WL",1600.000000
"WLFREQ", 0
"REFL",-58.5
"LSCL", 5.0
"RESLN",0.500
"AVG",   1
"SMPLAUTO",      0
"SMPL",       2500
"SMPLINTVL",0.0400
"HIGH1"
"MEAS"
"LSUNT",0
"NMSKH","OFF"
"RESCOR",0
"RESPARM", 9740
"FREQPARM", 9740






"[TRACE DATA]"
1500.0000,-210.000
1500.0400,-210.000
1500.0800,-210.000
1500.1200,-210.000
1500.1601,-210.000
1500.2001,-210.000
1500.2401,-210.000
1500.2801,-210.000
1500.3201,-210.000
1500.3601,-210.000
1500.4002,-210.000
1500.4402,-210.000
1500.4802,-210.000
1500.5202,-210.000
1500.5602,-210.000
1500.6002,-210.000
1500.6403,-210.000
1500.6803,-210.000
1500.7203,-210.000
1500.7603,-210.000
1500.8003,-210.000
1500.8403,-210.000
1500.8804,-210.000
1500.9204,-210.000
1500.9604,-210.000
1501.0004,-210.000
1501.0404,-210.000
1501.0804,-210.000
1501.1204,-210.000
1501.1605,-210.000
1501.2005,-210.000
1501.2405,-210.000
1501.2805,-210.000
1501.3205,-210.000
1501.3605,-210.000
1501.4006,-210.000
1501.4406,-210.000
1501.4806,-210.000
1501.5206,-210.000
1501.5606,-210.000
1501.6006,-210.000
1501.6407,-210.000
1501.6807,-210.000
1501.7207,-210.000
1501.7607,-210.000
1501.8007,-210.000
1501.8407,-210.000
1501.8808,-210.000
1501.9208,-210.000
1501.9608,-210.000
1502.0008,-210.000
1502.0408,-210.000
1502.0808,-210.000
1502.1208,-210.000
1502.1609,-210.000
1502.2009,-210.000
1502.2409,-210.000
1502.2809,-210.000
1502.3209,-210.000
1502.3609,-210.000
1502.4010,-210.000
1502.4410,-210.000
1502.4810,-210.000
1502.5210,-210.000
1502.5610,-210.000
1502.6010,-210.000
1502.6411,-210.000
1502.6811,-210.000
1502.7211,-210.000
1502.7611,-210.000
1502.8011,-210.000
1502.8411,-210.000
1502.8812,-210.000
1502.9212,-210.000
1502.9612,-210.000
1503.0012,-210.000
1503.0412,-210.000
1503.0812,-210.000
1503.1212,-210.000
1503.1613,-210.000
1503.2013,-210.000
1503.2413,-210.000
1503.2813,-210.000
1503.3213,-210.000
1503.3613,-210.000
1503.4014,-210.000
1503.4414,-210.000
1503.4814,-210.000
1503.5214,-210.000
1503.5614,-210.000
1503.6014,-210.000
1503.6415,-210.000
1503.6815,-210.000
1503.7215,-210.000
1503.7615,-210.000
1503.8015,-210.000
1503.8415,-210.000
1503.8816,-210.000
1503.9216,-210.000
1503.9616,-210.000
1504.0016,-210.000
1504.0416,-210.000
1504.0816,-210.000
1504.1216,-210.000
1504.1617,-210.000
1504.2017,-210.000
1504.2417,-210.000
1504.2817,-210.000
1504.3217,-210.000
1504.3617,-210.000
1504.4018,-210.000
1504.4418,-210.000
1504.4818,-210.000
1504.5218,-210.000
1504.5618,-210.000
1504.6018,-210.000
1504.6419,-210.000
1504.6819,-210.000
1504.7219,-210.000
1504.7619,-210.000
1504.8019,-210.000
1504.8419,-210.000
1504.8820,-210.000
1504.9220,-210.000
1504.9620,-210.000
1505.0020,-210.000
1505.0420,-210.000
1505.0820,-210.000
1505.1220,-210.000
1505.1621,-210.000
1505.2021,-210.000
1505.2421,-210.000
1505.2821,-210.000
1505.3221,-210.000
1505.3621,-210.000
1505.4022,-210.000
1505.4422,-210.000
1505.4822,-210.000
1505.5222,-210.000
1505.5622,-210.000
1505.6022,-210.000
1505.6423,-210.000
1505.6823,-210.000
1505.7223,-210.000
1505.7623,-210.000
1505.8023,-210.000
1505.8423,-210.000
1505.8824,-210.000
1505.9224,-210.000
1505.9624,-210.000
1506.0024,-210.000
1506.0424,-210.000
1506.0824,-210.000
1506.1224,-210.000
1506.1625,-210.000
1506.2025,-210.000
1506.2425,-210.000
1506.2825,-210.000
1506.3225,-210.000
1506.3625,-210.000
1506.4026,-210.000
1506.4426,-210.000
1506.4826,-210.000
1506.5226,-210.000
1506.5626,-210.000
1506.6026,-210.000
1506.6427,-210.000
1506.6827,-210.000
1506.7227,-210.000
1506.7627,-210.000
1506.8027,-210.000
1506.8427,-210.000
1506.8828,-210.000
1506.9228,-210.000
1506.9628,-210.000
1507.0028,-210.000
1507.0428,-210.000
1507.0828,-210.000
1507.1228,-210.000
1507.1629,-210.000
1507.2029,-210.000
1507.2429,-210.000
1507.2829,-210.000
1507.3229,-210.000
1507.3629,-210.000
1507.4030,-210.000
1507.4430,-210.000
1507.4830,-210.000
1507.5230,-210.000
1507.5630,-210.000
1507.6030,-210.000
1507.6431,-210.000
1507.6831,-210.000
1507.7231,-210.000
1507.7631,-210.000
1507.8031,-210.000
1507.8431,-210.000
1507.8832,-210.000
1507.9232,-210.000
1507.9632,-210.000
1508.0032,-210.000
1508.0432,-210.000
1508.0832,-210.000
1508.1232,-210.000
1508.1633,-210.000
1508.2033,-210.000
1508.2433,-210.000
1508.2833,-210.000
1508.3233,-210.000
1508.3633,-210.000
1508.4034,-210.000
1508.4434,-210.000
1508.4834,-210.000
1508.5234,-210.000
1508.5634,-210.000
1508.6034,-210.000
1508.6435,-210.000
1508.6835,-210.000
1508.7235,-210.000
1508.7635,-210.000
1508.8035,-210.000
1508.8435,-210.000
1508.8836,-210.000
1508.9236,-210.000
1508.9636,-210.000
1509.0036,-210.000
1509.0436,-210.000
1509.0836,-210.000
1509.1236,-210.000
1509.1637,-210.000
1509.2037,-210.000
1509.2437,-210.000
1509.2837,-210.000
1509.3237,-210.000
1509.3637,-210.000
1509.4038,-210.000
1509.4438,-210.000
1509.4838,-210.000
1509.5238,-210.000
1509.5638,-210.000
1509.6038,-210.000
1509.6439,-210.000
1509.6839,-210.000
1509.7239,-210.000
1509.7639,-210.000
1509.8039,-210.000
1509.8439,-210.000
1509.8840,-210.000
1509.9240,-210.000
1509.9640,-210.000
1510.0040,-210.000
1510.0440,-210.000
1510.0840,-210.000
1510.1240,-210.000
1510.1641,-210.000
1510.2041,-210.000
1510.2441,-210.000
1510.2841,-210.000
1510.3241,-210.000
1510.3641,-210.000
1510.4042,-210.000
1510.4442,-210.000
1510.4842,-210.000
1510.5242,-210.000
1510.5642,-210.000
1510.6042,-210.000
1510.6443,-210.000
1510.6843,-210.000
1510.7243,-210.000
1510.7643,-210.000
1510.8043,-210.000
1510.8443, -85.231
1510.8844,-210.000
1510.9244,-210.000
1510.9644,-210.000
1511.0044,-210.000
1511.0444,-210.000
1511.0844,-210.000
1511.1244,-210.000
1511.1645,-210.000
1511.2045,-210.000
1511.2445,-210.000
1511.2845,-210.000
1511.3245,-210.000
1511.3645,-210.000
1511.4046,-210.000
1511.4446,-210.000
1511.4846,-210.000
1511.5246,-210.000
1511.5646,-210.000
1511.6046,-210.000
1511.6447,-210.000
1511.6847,-210.000
1511.7247,-210.000
1511.7647,-210.000
1511.8047,-210.000
1511.8447,-210.000
1511.8848,-210.000
1511.9248,-210.000
1511.9648,-210.000
1512.0048,-210.000
1512.0448,-210.000
1512.0848,-210.000
1512.1248,-210.000
1512.1649,-210.000
1512.2049,-210.000
1512.2449,-210.000
1512.2849,-210.000
1512.3249,-210.000
1512.3649,-210.000
1512.4050,-210.000
1512.4450,-210.000
1512.4850,-210.000
1512.5250,-210.000
1512.5650,-210.000
1512.6050,-210.000
1512.6451,-210.000
1512.6851,-210.000
1512.7251,-210.000
1512.7651,-210.000
1512.8051,-210.000
1512.8451,-210.000
1512.8852,-210.000
1512.9252,-210.000
1512.9652,-210.000
1513.0052,-210.000
1513.0452,-210.000
1513.0852,-210.000
1513.1253,-210.000
1513.1653,-210.000
1513.2053,-210.000
1513.2453,-210.000
1513.2853,-210.000
1513.3253,-210.000
1513.3653,-210.000
1513.4054,-210.000
1513.4454,-210.000
1513.4854,-210.000
1513.5254,-210.000
1513.5654,-210.000
1513.6054,-210.000
1513.6455,-210.000
1513.6855,-210.000
1513.7255,-210.000
1513.7655,-210.000
1513.8055,-210.000
1513.8455,-210.000
1513.8856,-210.000
1513.9256,-210.000
1513.9656,-210.000
1514.0056,-210.000
1514.0456,-210.000
1514.0856,-210.000
1514.1257,-210.000
1514.1657,-210.000
1514.2057,-210.000
1514.2457,-210.000
1514.2857,-210.000
1514.3257,-210.000
1514.3657,-210.000
1514.4058,-210.000
1514.4458,-210.000
1514.4858,-210.000
1514.5258,-210.000
1514.5658,-210.000
1514.6058,-210.000
1514.6459,-210.000
1514.6859,-210.000
1514.7259,-210.000
1514.7659,-210.000
1514.8059,-210.000
1514.8459,-210.000
1514.8860,-210.000
1514.9260,-210.000
1514.9660,-210.000
1515.0060,-210.000
1515.0460,-210.000
1515.0860,-210.000
1515.1261,-210.000
1515.1661,-210.000
1515.2061,-210.000
1515.2461,-210.000
1515.2861,-210.000
1515.3261,-210.000
1515.3661,-210.000
1515.4062,-210.000
1515.4462,-210.000
1515.4862,-210.000
1515.5262,-210.000
1515.5662,-210.000
1515.6062,-210.000
1515.6463,-210.000
1515.6863,-210.000
1515.7263,-210.000
1515.7663,-210.000
1515.8063,-210.000
1515.8463,-210.000
1515.8864,-210.000
1515.9264,-210.000
1515.9664,-210.000
1516.0064,-210.000
1516.0464,-210.000
1516.0864,-210.000
1516.1265,-210.000
1516.1665,-210.000
1516.2065,-210.000
1516.2465,-210.000
1516.2865,-210.000
1516.3265,-210.000
1516.3665,-210.000
1516.4066,-210.000
1516.4466,-210.000
1516.4866,-210.000
1516.5266,-210.000
1516.5666,-210.000
1516.6066,-210.000
1516.6467,-210.000
1516.6867,-210.000
1516.7267,-210.000
1516.7667,-210.000
1516.8067,-210.000
1516.8467,-210.000
1516.8868,-210.000
1516.9268,-210.000
1516.9668,-210.000
1517.0068,-210.000
1517.0468,-210.000
1517.0868,-210.000
1517.1269,-210.000
1517.1669,-210.000
1517.2069,-210.000
1517.2469,-210.000
1517.2869,-210.000
1517.3269,-210.000
1517.3669,-210.000
1517.4070,-210.000
1517.4470,-210.000
1517.4870,-210.000
1517.5270,-210.000
1517.5670,-210.000
1517.6070,-210.000
1517.6471, -92.402
1517.6871,-210.000
1517.7271,-210.000
1517.7671,-210.000
1517.8071,-210.000
1517.8471,-210.000
1517.8872,-210.000
1517.9272,-210.000
1517.9672,-210.000
1518.0072,-210.000
1518.0472,-210.000
1518.0872,-210.000
1518.1273,-210.000
1518.1673,-210.000
1518.2073,-210.000
1518.2473,-210.000
1518.2873,-210.000
1518.3273,-210.000
1518.3673,-210.000
1518.4074,-210.000
1518.4474,-210.000
1518.4874,-210.000
1518.5274,-210.000
1518.5674,-210.000
1518.6074,-210.000
1518.6475,-210.000
1518.6875,-210.000
1518.7275,-210.000
1518.7675,-210.000
1518.8075,-210.000
1518.8475,-210.000
1518.8876,-210.000
1518.9276,-210.000
1518.9676,-210.000
1519.0076,-210.000
1519.0476,-210.000
1519.0876,-210.000
1519.1277,-210.000
1519.1677,-210.000
1519.2077,-210.000
1519.2477,-210.000
1519.2877,-210.000
1519.3277,-210.000
1519.3677,-210.000
1519.4078,-210.000
1519.4478,-210.000
1519.4878,-210.000
1519.5278,-210.000
1519.5678,-210.000
1519.6078,-210.000
1519.6479,-210.000
1519.6879,-210.000
1519.7279,-210.000
1519.7679,-210.000
1519.8079,-210.000
1519.8479,-210.000
1519.8880,-210.000
1519.9280,-210.000
1519.9680,-210.000
1520.0080,-210.000
1520.0480,-210.000
1520.0880,-210.000
1520.1281,-210.000
1520.1681,-210.000
1520.2081,-210.000
1520.2481,-210.000
1520.2881,-210.000
1520.3281,-210.000
1520.3681,-210.000
1520.4082,-210.000
1520.4482,-210.000
1520.4882,-210.000
1520.5282,-210.000
1520.5682,-210.000
1520.6082,-210.000
1520.6483,-210.000
1520.6883,-210.000
1520.7283,-210.000
1520.7683,-210.000
1520.8083,-210.000
1520.8483,-210.000
1520.8884,-210.000
1520.9284,-210.000
1520.9684,-210.000
1521.0084,-210.000
1521.0484,-210.000
1521.0884,-210.000
1521.1285,-210.000
1521.1685,-210.000
1521.2085,-210.000
1521.2485,-210.000
1521.2885,-210.000
1521.3285,-210.000
1521.3685,-210.000
1521.4086,-210.000
1521.4486,-210.000
1521.4886,-210.000
1521.5286,-210.000
1521.5686,-210.000
1521.6086,-210.000
1521.6487,-210.000
1521.6887,-210.000
1521.7287, -92.884
1521.7687,-210.000
1521.8087,-210.000
1521.8487,-210.000
1521.8888,-210.000
1521.9288,-210.000
1521.9688,-210.000
1522.0088,-210.000
1522.0488,-210.000
1522.0888,-210.000
1522.1289,-210.000
1522.1689,-210.000
1522.2089,-210.000
1522.2489,-210.000
1522.2889,-210.000
1522.3289,-210.000
1522.3689,-210.000
1522.4090,-210.000
1522.4490,-210.000
1522.4890,-210.000
1522.5290,-210.000
1522.5690,-210.000
1522.6090,-210.000
1522.6491,-210.000
1522.6891,-210.000
1522.7291,-210.000
1522.7691, -94.231
1522.8091,-210.000
1522.8491,-210.000
1522.8892,-210.000
1522.9292,-210.000
1522.9692,-210.000
1523.0092,-210.000
1523.0492,-210.000
1523.0892,-210.000
1523.1293,-210.000
1523.1693,-210.000
1523.2093,-210.000
1523.2493,-210.000
1523.2893,-210.000
1523.3293,-210.000
1523.3693,-210.000
1523.4094,-210.000
1523.4494,-210.000
1523.4894,-210.000
1523.5294,-210.000
1523.5694,-210.000
1523.6094,-210.000
1523.6495, -83.025
1523.6895,-210.000
1523.7295,-210.000
1523.7695,-210.000
1523.8095,-210.000
1523.8495,-210.000
1523.8896,-210.000
1523.9296,-210.000
1523.9696,-210.000
1524.0096,-210.000
1524.0496,-210.000
1524.0896,-210.000
1524.1297, -86.311
1524.1697,-210.000
1524.2097,-210.000
1524.2497,-210.000
1524.2897,-210.000
1524.3297,-210.000
1524.3697,-210.000
1524.4098, -85.586
1524.4498,-210.000
1524.4898,-210.000
1524.5298, -95.669
1524.5698,-210.000
1524.6098, -88.132
1524.6499,-210.000
1524.6899,-210.000
1524.7299,-210.000
1524.7699,-210.000
1524.8099,-210.000
1524.8499,-210.000
1524.8900,-210.000
1524.9300,-210.000
1524.9700, -89.684
1525.0100,-210.000
1525.0500,-210.000
1525.0900,-210.000
1525.1301, -87.585
1525.1701,-210.000
1525.2101,-210.000
1525.2501,-210.000
1525.2901,-210.000
1525.3301,-210.000
1525.3701,-210.000
1525.4102,-210.000
1525.4502, -98.135
1525.4902,-210.000
1525.5302,-210.000
1525.5702,-210.000
1525.6102,-210.000
1525.6503,-210.000
1525.6903, -82.614
1525.7303,-210.000
1525.7703, -81.411
1525.8103, -83.757
1525.8503, -88.103
1525.8904, -81.293
1525.9304, -80.708
1525.9704, -86.532
1526.0104, -79.584
1526.0504, -80.096
1526.0904, -81.925
1526.1305, -82.089
1526.1705, -80.447
1526.2105, -80.280
1526.2505, -78.447
1526.2905, -79.689
1526.3305, -79.338
1526.3705, -77.861
1526.4106, -78.418
1526.4506, -78.244
1526.4906, -78.532
1526.5306, -77.324
1526.5706, -77.612
1526.6106, -76.597
1526.6507, -76.652
1526.6907, -75.722
1526.7307, -75.687
1526.7707, -75.663
1526.8107, -75.527
1526.8507, -75.705
1526.8908, -74.785
1526.9308, -74.529
1526.9708, -74.230
1527.0108, -74.437
1527.0508, -73.644
1527.0908, -74.286
1527.1309, -73.263
1527.1709, -73.709
1527.2109, -73.222
1527.2509, -73.170
1527.2909, -72.900
1527.3309, -72.885
1527.3709, -72.595
1527.4110, -72.616
1527.4510, -73.058
1527.4910, -72.391
1527.5310, -72.578
1527.5710, -71.907
1527.6110, -72.354
1527.6511, -72.183
1527.6911, -71.943
1527.7311, -72.107
1527.7711, -71.783
1527.8111, -71.636
1527.8511, -71.795
1527.8912, -71.589
1527.9312, -71.032
1527.9712, -71.330
1528.0112, -71.101
1528.0512, -70.795
1528.0912, -70.309
1528.1313, -70.588
1528.1713, -70.100
1528.2113, -69.987
1528.2513, -69.670
1528.2913, -69.411
1528.3313, -68.992
1528.3713, -68.880
1528.4114, -68.724
1528.4514, -68.363
1528.4914, -68.063
1528.5314, -67.806
1528.5714, -67.603
1528.6114, -67.350
1528.6515, -67.140
1528.6915, -66.817
1528.7315, -66.786
1528.7715, -66.455
1528.8115, -66.210
1528.8515, -66.012
1528.8916, -65.842
1528.9316, -65.526
1528.9716, -65.382
1529.0116, -65.102
1529.0516, -64.872
1529.0916, -64.465
1529.1317, -64.308
1529.1717, -63.906
1529.2117, -63.601
1529.2517, -63.281
1529.2917, -62.986
1529.3317, -62.663
1529.3717, -62.323
1529.4118, -62.033
1529.4518, -61.742
1529.4918, -61.450
1529.5318, -61.161
1529.5718, -60.881
1529.6118, -60.628
1529.6519, -60.380
1529.6919, -60.134
1529.7319, -59.909
1529.7719, -59.648
1529.8119, -59.425
1529.8519, -59.197
1529.8920, -58.953
1529.9320, -58.733
1529.9720, -58.513
1530.0120, -58.290
1530.0520, -58.095
1530.0920, -57.894
1530.1321, -57.732
1530.1721, -57.550
1530.2121, -57.418
1530.2521, -57.291
1530.2921, -57.180
1530.3321, -57.117
1530.3721, -57.048
1530.4122, -57.020
1530.4522, -56.995
1530.4922, -56.988
1530.5322, -57.009
1530.5722, -57.010
1530.6122, -57.062
1530.6523, -57.106
1530.6923, -57.139
1530.7323, -57.178
1530.7723, -57.252
1530.8123, -57.289
1530.8523, -57.350
1530.8924, -57.410
1530.9324, -57.464
1530.9724, -57.502
1531.0124, -57.580
1531.0524, -57.637
1531.0924, -57.715
1531.1325, -57.747
1531.1725, -57.802
1531.2125, -57.861
1531.2525, -57.926
1531.2925, -57.976
1531.3325, -58.013
1531.3725, -58.042
1531.4126, -58.058
1531.4526, -58.062
1531.4926, -58.033
1531.5326, -58.014
1531.5726, -57.964
1531.6126, -57.901
1531.6527, -57.845
1531.6927, -57.758
1531.7327, -57.642
1531.7727, -57.545
1531.8127, -57.447
1531.8527, -57.346
1531.8928, -57.234
1531.9328, -57.129
1531.9728, -57.022
1532.0128, -56.932
1532.0528, -56.832
1532.0928, -56.757
1532.1329, -56.668
1532.1729, -56.578
1532.2129, -56.504
1532.2529, -56.427
1532.2929, -56.360
1532.3329, -56.304
1532.3729, -56.240
1532.4130, -56.189
1532.4530, -56.138
1532.4930, -56.101
1532.5330, -56.083
1532.5730, -56.059
1532.6130, -56.068
1532.6531, -56.046
1532.6931, -56.061
1532.7331, -56.055
1532.7731, -56.061
1532.8131, -56.070
1532.8531, -56.095
1532.8932, -56.101
1532.9332, -56.100
1532.9732, -56.117
1533.0132, -56.135
1533.0532, -56.147
1533.0932, -56.171
1533.1333, -56.195
1533.1733, -56.220
1533.2133, -56.258
1533.2533, -56.274
1533.2933, -56.314
1533.3333, -56.345
1533.3733, -56.373
1533.4134, -56.403
1533.4534, -56.438
1533.4934, -56.457
1533.5334, -56.485
1533.5734, -56.514
1533.6134, -56.547
1533.6535, -56.571
1533.6935, -56.615
1533.7335, -56.654
1533.7735, -56.689
1533.8135, -56.747
1533.8535, -56.804
1533.8936, -56.852
1533.9336, -56.934
1533.9736, -56.997
1534.0136, -57.066
1534.0536, -57.141
1534.0936, -57.223
1534.1337, -57.305
1534.1737, -57.388
1534.2137, -57.493
1534.2537, -57.584
1534.2937, -57.682
1534.3337, -57.764
1534.3737, -57.870
1534.4138, -57.944
1534.4538, -58.050
1534.4938, -58.153
1534.5338, -58.253
1534.5738, -58.358
1534.6138, -58.458
1534.6539, -58.549
1534.6939, -58.655
1534.7339, -58.767
1534.7739, -58.888
1534.8139, -58.982
1534.8539, -59.085
1534.8940, -59.222
1534.9340, -59.312
1534.9740, -59.427
1535.0140, -59.567
1535.0540, -59.672
1535.0940, -59.806
1535.1341, -59.982
1535.1741, -60.063
1535.2141, -60.242
1535.2541, -60.407
1535.2941, -60.571
1535.3341, -60.773
1535.3741, -60.946
1535.4142, -61.153
1535.4542, -61.354
1535.4942, -61.600
1535.5342, -61.839
1535.5742, -62.072
1535.6142, -62.337
1535.6543, -62.594
1535.6943, -62.870
1535.7343, -63.084
1535.7743, -63.422
1535.8143, -63.770
1535.8543, -64.067
1535.8944, -64.371
1535.9344, -64.639
1535.9744, -64.979
1536.0144, -65.183
1536.0544, -65.460
1536.0944, -65.723
1536.1345, -65.905
1536.1745, -66.069
1536.2145, -66.210
1536.2545, -66.260
1536.2945, -66.236
1536.3345, -66.261
1536.3745, -66.217
1536.4146, -66.052
1536.4546, -66.106
1536.4946, -65.884
1536.5346, -65.676
1536.5746, -65.501
1536.6146, -65.469
1536.6547, -65.203
1536.6947, -65.051
1536.7347, -64.973
1536.7747, -64.867
1536.8147, -64.702
1536.8547, -64.555
1536.8948, -64.455
1536.9348, -64.404
1536.9748, -64.265
1537.0148, -64.285
1537.0548, -64.202
1537.0948, -64.220
1537.1349, -64.153
1537.1749, -64.201
1537.2149, -64.193
1537.2549, -64.126
1537.2949, -64.169
1537.3349, -64.239
1537.3749, -64.317
1537.4150, -64.276
1537.4550, -64.360
1537.4950, -64.482
1537.5350, -64.600
1537.5750, -64.606
1537.6150, -64.756
1537.6551, -64.777
1537.6951, -64.959
1537.7351, -65.009
1537.7751, -65.200
1537.8151, -65.374
1537.8551, -65.461
1537.8952, -65.566
1537.9352, -65.714
1537.9752, -65.821
1538.0152, -65.960
1538.0552, -66.107
1538.0952, -66.213
1538.1353, -66.369
1538.1753, -66.400
1538.2153, -66.529
1538.2553, -66.598
1538.2953, -66.750
1538.3353, -66.872
1538.3754, -66.901
1538.4154, -67.132
1538.4554, -67.179
1538.4954, -67.036
1538.5354, -67.264
1538.5754, -67.332
1538.6154, -67.368
1538.6555, -67.337
1538.6955, -67.313
1538.7355, -67.444
1538.7755, -67.308
1538.8155, -67.360
1538.8555, -67.371
1538.8956, -67.223
1538.9356, -67.217
1538.9756, -67.201
1539.0156, -66.991
1539.0556, -66.997
1539.0956, -66.973
1539.1357, -66.906
1539.1757, -66.849
1539.2157, -66.754
1539.2557, -66.690
1539.2957, -66.627
1539.3357, -66.710
1539.3758, -66.521
1539.4158, -66.527
1539.4558, -66.379
1539.4958, -66.421
1539.5358, -66.349
1539.5758, -66.421
1539.6158, -66.326
1539.6559, -66.333
1539.6959, -66.356
1539.7359, -66.406
1539.7759, -66.505
1539.8159, -66.433
1539.8559, -66.638
1539.8960, -66.798
1539.9360, -66.864
1539.9760, -66.971
1540.0160, -67.162
1540.0560, -67.221
1540.0960, -67.437
1540.1361, -67.512
1540.1761, -67.765
1540.2161, -67.713
1540.2561, -67.972
1540.2961, -67.985
1540.3361, -68.027
1540.3762, -68.142
1540.4162, -68.229
1540.4562, -68.191
1540.4962, -68.046
1540.5362, -68.243
1540.5762, -68.133
1540.6162, -68.232
1540.6563, -67.887
1540.6963, -68.032
1540.7363, -67.942
1540.7763, -67.760
1540.8163, -67.680
1540.8563, -67.581
1540.8964, -67.664
1540.9364, -67.483
1540.9764, -67.341
1541.0164, -67.158
1541.0564, -67.132
1541.0964, -67.088
1541.1365, -66.997
1541.1765, -66.792
1541.2165, -66.632
1541.2565, -66.752
