70BCSV 	
// AQ6370B OPTICAL SPECTRUM ANALYZER //                 
25
"CTRWL",1550.000000
"SPAN", 100.000000
"START WL",1500.000000
"STOP WL",1600.000000
"WLFREQ", 0
"REFL",-58.5
"LSCL", 5.0
"RESLN",0.500
"AVG",   1
"SMPLAUTO",      0
"SMPL",       2500
"SMPLINTVL",0.0400
"HIGH1"
"MEAS"
"LSUNT",0
"NMSKH","OFF"
"RESCOR",0
"RESPARM", 9740
"FREQPARM", 9740






"[TRACE DATA]"
1500.0000,-210.000
1500.0400,-210.000
1500.0800,-210.000
1500.1200,-210.000
1500.1601,-210.000
1500.2001,-210.000
1500.2401, -89.207
1500.2801,-210.000
1500.3201,-210.000
1500.3601,-210.000
1500.4002,-210.000
1500.4402,-210.000
1500.4802,-210.000
1500.5202,-210.000
1500.5602,-210.000
1500.6002,-210.000
1500.6403,-210.000
1500.6803, -94.046
1500.7203,-210.000
1500.7603,-210.000
1500.8003,-210.000
1500.8403,-210.000
1500.8804, -88.401
1500.9204,-210.000
1500.9604,-210.000
1501.0004,-210.000
1501.0404,-210.000
1501.0804,-210.000
1501.1204,-210.000
1501.1605,-210.000
1501.2005,-210.000
1501.2405,-210.000
1501.2805,-210.000
1501.3205,-210.000
1501.3605,-210.000
1501.4006,-210.000
1501.4406,-210.000
1501.4806,-210.000
1501.5206,-210.000
1501.5606,-210.000
1501.6006,-210.000
1501.6407,-210.000
1501.6807,-210.000
1501.7207,-210.000
1501.7607,-210.000
1501.8007,-210.000
1501.8407,-210.000
1501.8808,-210.000
1501.9208,-210.000
1501.9608,-210.000
1502.0008,-210.000
1502.0408,-210.000
1502.0808,-210.000
1502.1208, -95.632
1502.1609,-210.000
1502.2009,-210.000
1502.2409, -90.582
1502.2809,-210.000
1502.3209,-210.000
1502.3609,-210.000
1502.4010,-210.000
1502.4410,-210.000
1502.4810,-210.000
1502.5210, -87.905
1502.5610,-210.000
1502.6010, -82.979
1502.6411,-210.000
1502.6811,-210.000
1502.7211,-210.000
1502.7611,-210.000
1502.8011, -96.481
1502.8411,-210.000
1502.8812,-210.000
1502.9212,-210.000
1502.9612, -88.667
1503.0012, -83.899
1503.0412,-210.000
1503.0812,-210.000
1503.1212,-210.000
1503.1613,-210.000
1503.2013,-210.000
1503.2413,-210.000
1503.2813, -94.539
1503.3213,-210.000
1503.3613,-210.000
1503.4014,-210.000
1503.4414, -91.124
1503.4814,-210.000
1503.5214,-210.000
1503.5614,-210.000
1503.6014,-210.000
1503.6415,-210.000
1503.6815,-210.000
1503.7215,-210.000
1503.7615, -87.525
1503.8015,-210.000
1503.8415,-210.000
1503.8816,-210.000
1503.9216,-210.000
1503.9616,-210.000
1504.0016,-210.000
1504.0416,-210.000
1504.0816,-210.000
1504.1216,-210.000
1504.1617,-210.000
1504.2017, -87.431
1504.2417,-210.000
1504.2817, -87.833
1504.3217,-210.000
1504.3617,-210.000
1504.4018,-210.000
1504.4418,-210.000
1504.4818,-210.000
1504.5218, -96.530
1504.5618,-210.000
1504.6018,-210.000
1504.6419,-210.000
1504.6819,-210.000
1504.7219, -87.063
1504.7619,-210.000
1504.8019,-210.000
1504.8419, -87.797
1504.8820, -93.601
1504.9220,-210.000
1504.9620,-210.000
1505.0020, -86.073
1505.0420,-210.000
1505.0820, -91.029
1505.1220,-210.000
1505.1621,-210.000
1505.2021,-210.000
1505.2421,-210.000
1505.2821,-210.000
1505.3221,-210.000
1505.3621,-210.000
1505.4022, -89.079
1505.4422,-210.000
1505.4822,-210.000
1505.5222, -89.529
1505.5622,-210.000
1505.6022,-210.000
1505.6423, -85.454
1505.6823,-210.000
1505.7223, -85.416
1505.7623,-210.000
1505.8023, -89.624
1505.8423,-210.000
1505.8824,-210.000
1505.9224,-210.000
1505.9624,-210.000
1506.0024,-210.000
1506.0424,-210.000
1506.0824,-210.000
1506.1224, -89.781
1506.1625,-210.000
1506.2025,-210.000
1506.2425,-210.000
1506.2825,-210.000
1506.3225,-210.000
1506.3625,-210.000
1506.4026,-210.000
1506.4426,-210.000
1506.4826, -93.465
1506.5226, -89.501
1506.5626,-210.000
1506.6026,-210.000
1506.6427,-210.000
1506.6827,-210.000
1506.7227,-210.000
1506.7627,-210.000
1506.8027,-210.000
1506.8427, -90.192
1506.8828,-210.000
1506.9228,-210.000
1506.9628, -85.290
1507.0028,-210.000
1507.0428,-210.000
1507.0828,-210.000
1507.1228,-210.000
1507.1629,-210.000
1507.2029,-210.000
1507.2429,-210.000
1507.2829,-210.000
1507.3229,-210.000
1507.3629,-210.000
1507.4030,-210.000
1507.4430, -85.707
1507.4830,-210.000
1507.5230,-210.000
1507.5630, -83.121
1507.6030,-210.000
1507.6431,-210.000
1507.6831,-210.000
1507.7231,-210.000
1507.7631,-210.000
1507.8031,-210.000
1507.8431,-210.000
1507.8832,-210.000
1507.9232,-210.000
1507.9632,-210.000
1508.0032,-210.000
1508.0432,-210.000
1508.0832,-210.000
1508.1232,-210.000
1508.1633,-210.000
1508.2033,-210.000
1508.2433,-210.000
1508.2833, -92.726
1508.3233,-210.000
1508.3633,-210.000
1508.4034,-210.000
1508.4434,-210.000
1508.4834,-210.000
1508.5234,-210.000
1508.5634,-210.000
1508.6034,-210.000
1508.6435,-210.000
1508.6835,-210.000
1508.7235,-210.000
1508.7635, -97.493
1508.8035,-210.000
1508.8435,-210.000
1508.8836,-210.000
1508.9236,-210.000
1508.9636,-210.000
1509.0036,-210.000
1509.0436,-210.000
1509.0836,-210.000
1509.1236,-210.000
1509.1637,-210.000
1509.2037,-210.000
1509.2437,-210.000
1509.2837, -94.805
1509.3237,-210.000
1509.3637,-210.000
1509.4038,-210.000
1509.4438,-210.000
1509.4838,-210.000
1509.5238,-210.000
1509.5638,-210.000
1509.6038,-210.000
1509.6439,-210.000
1509.6839, -88.124
1509.7239,-210.000
1509.7639,-210.000
1509.8039,-210.000
1509.8439, -88.012
1509.8840,-210.000
1509.9240,-210.000
1509.9640,-210.000
1510.0040,-210.000
1510.0440,-210.000
1510.0840,-210.000
1510.1240,-210.000
1510.1641,-210.000
1510.2041,-210.000
1510.2441, -87.528
1510.2841,-210.000
1510.3241, -92.899
1510.3641,-210.000
1510.4042, -93.141
1510.4442,-210.000
1510.4842,-210.000
1510.5242,-210.000
1510.5642, -87.893
1510.6042,-210.000
1510.6443,-210.000
1510.6843,-210.000
1510.7243,-210.000
1510.7643, -91.098
1510.8043,-210.000
1510.8443,-210.000
1510.8844,-210.000
1510.9244,-210.000
1510.9644,-210.000
1511.0044,-210.000
1511.0444,-210.000
1511.0844,-210.000
1511.1244,-210.000
1511.1645,-210.000
1511.2045,-210.000
1511.2445,-210.000
1511.2845,-210.000
1511.3245,-210.000
1511.3645,-210.000
1511.4046,-210.000
1511.4446,-210.000
1511.4846,-210.000
1511.5246, -91.195
1511.5646,-210.000
1511.6046,-210.000
1511.6447,-210.000
1511.6847,-210.000
1511.7247, -91.440
1511.7647,-210.000
1511.8047, -93.567
1511.8447,-210.000
1511.8848,-210.000
1511.9248,-210.000
1511.9648,-210.000
1512.0048, -87.673
1512.0448,-210.000
1512.0848, -92.669
1512.1248,-210.000
1512.1649, -84.403
1512.2049,-210.000
1512.2449,-210.000
1512.2849, -90.891
1512.3249,-210.000
1512.3649,-210.000
1512.4050,-210.000
1512.4450, -85.749
1512.4850,-210.000
1512.5250,-210.000
1512.5650,-210.000
1512.6050,-210.000
1512.6451,-210.000
1512.6851,-210.000
1512.7251,-210.000
1512.7651,-210.000
1512.8051, -96.888
1512.8451,-210.000
1512.8852, -85.300
1512.9252,-210.000
1512.9652,-210.000
1513.0052, -84.779
1513.0452,-210.000
1513.0852,-210.000
1513.1253,-113.355
1513.1653,-210.000
1513.2053,-210.000
1513.2453,-210.000
1513.2853, -94.773
1513.3253,-210.000
1513.3653,-210.000
1513.4054,-210.000
1513.4454,-210.000
1513.4854,-210.000
1513.5254,-210.000
1513.5654,-210.000
1513.6054,-210.000
1513.6455,-210.000
1513.6855, -89.755
1513.7255,-210.000
1513.7655, -99.746
1513.8055,-210.000
1513.8455,-210.000
1513.8856,-210.000
1513.9256,-210.000
1513.9656,-210.000
1514.0056,-210.000
1514.0456,-210.000
1514.0856,-210.000
1514.1257,-210.000
1514.1657,-210.000
1514.2057, -90.961
1514.2457,-210.000
1514.2857,-210.000
1514.3257,-210.000
1514.3657, -88.342
1514.4058,-210.000
1514.4458,-210.000
1514.4858,-210.000
1514.5258,-210.000
1514.5658,-210.000
1514.6058, -99.809
1514.6459,-210.000
1514.6859,-210.000
1514.7259,-210.000
1514.7659,-210.000
1514.8059,-210.000
1514.8459,-210.000
1514.8860, -92.307
1514.9260,-210.000
1514.9660,-210.000
1515.0060,-210.000
1515.0460,-210.000
1515.0860,-210.000
1515.1261,-210.000
1515.1661,-210.000
1515.2061,-210.000
1515.2461,-210.000
1515.2861,-210.000
1515.3261,-210.000
1515.3661,-210.000
1515.4062,-210.000
1515.4462,-210.000
1515.4862,-210.000
1515.5262,-210.000
1515.5662,-210.000
1515.6062, -95.067
1515.6463,-210.000
1515.6863,-210.000
1515.7263,-210.000
1515.7663, -91.577
1515.8063,-210.000
1515.8463, -91.730
1515.8864,-210.000
1515.9264,-210.000
1515.9664,-210.000
1516.0064,-210.000
1516.0464,-210.000
1516.0864,-210.000
1516.1265, -92.875
1516.1665, -93.609
1516.2065,-210.000
1516.2465, -89.896
1516.2865,-210.000
1516.3265,-210.000
1516.3665,-210.000
1516.4066, -90.098
1516.4466,-210.000
1516.4866,-210.000
1516.5266,-210.000
1516.5666,-101.927
1516.6066,-210.000
1516.6467, -93.763
1516.6867,-210.000
1516.7267,-210.000
1516.7667,-210.000
1516.8067,-210.000
1516.8467, -91.966
1516.8868,-210.000
1516.9268,-210.000
1516.9668,-210.000
1517.0068,-210.000
1517.0468,-210.000
1517.0868, -94.672
1517.1269,-210.000
1517.1669,-210.000
1517.2069,-210.000
1517.2469, -92.255
1517.2869,-210.000
1517.3269,-210.000
1517.3669,-210.000
1517.4070, -90.259
1517.4470,-210.000
1517.4870,-210.000
1517.5270,-210.000
1517.5670,-210.000
1517.6070,-210.000
1517.6471,-210.000
1517.6871,-210.000
1517.7271,-210.000
1517.7671, -98.910
1517.8071,-210.000
1517.8471, -87.903
1517.8872,-210.000
1517.9272,-210.000
1517.9672,-210.000
1518.0072, -84.186
1518.0472,-210.000
1518.0872,-210.000
1518.1273,-210.000
1518.1673,-210.000
1518.2073,-210.000
1518.2473,-210.000
1518.2873, -91.259
1518.3273,-210.000
1518.3673,-210.000
1518.4074,-210.000
1518.4474,-210.000
1518.4874,-210.000
1518.5274,-210.000
1518.5674, -89.748
1518.6074,-210.000
1518.6475,-210.000
1518.6875,-210.000
1518.7275,-210.000
1518.7675,-210.000
1518.8075,-210.000
1518.8475,-210.000
1518.8876, -88.382
1518.9276,-210.000
1518.9676,-210.000
1519.0076,-210.000
1519.0476,-210.000
1519.0876,-210.000
1519.1277, -89.353
1519.1677,-210.000
1519.2077, -91.701
1519.2477,-210.000
1519.2877, -88.802
1519.3277,-210.000
1519.3677,-210.000
1519.4078,-210.000
1519.4478, -87.214
1519.4878, -92.237
1519.5278, -91.149
1519.5678,-210.000
1519.6078,-210.000
1519.6479, -89.086
1519.6879,-210.000
1519.7279,-210.000
1519.7679,-210.000
1519.8079,-210.000
1519.8479,-103.383
1519.8880,-210.000
1519.9280,-210.000
1519.9680,-210.000
1520.0080,-210.000
1520.0480,-210.000
1520.0880, -85.931
1520.1281,-210.000
1520.1681, -91.734
1520.2081,-210.000
1520.2481,-210.000
1520.2881, -88.121
1520.3281,-210.000
1520.3681,-210.000
1520.4082,-210.000
1520.4482,-210.000
1520.4882,-210.000
1520.5282,-210.000
1520.5682,-210.000
1520.6082,-210.000
1520.6483, -84.931
1520.6883,-210.000
1520.7283,-100.471
1520.7683, -89.189
1520.8083, -89.610
1520.8483, -93.606
1520.8884,-210.000
1520.9284, -84.460
1520.9684,-210.000
1521.0084, -86.473
1521.0484,-210.000
1521.0884,-210.000
1521.1285, -90.178
1521.1685,-210.000
1521.2085, -87.149
1521.2485,-210.000
1521.2885, -84.559
1521.3285, -86.176
1521.3685,-210.000
1521.4086,-210.000
1521.4486,-210.000
1521.4886,-210.000
1521.5286,-210.000
1521.5686,-101.307
1521.6086, -88.075
1521.6487, -93.932
1521.6887,-210.000
1521.7287, -88.315
1521.7687,-210.000
1521.8087, -84.234
1521.8487, -90.696
1521.8888,-210.000
1521.9288, -94.655
1521.9688,-210.000
1522.0088, -87.350
1522.0488,-210.000
1522.0888, -84.456
1522.1289,-210.000
1522.1689,-210.000
1522.2089, -90.743
1522.2489, -86.895
1522.2889,-210.000
1522.3289, -96.601
1522.3689, -84.900
1522.4090, -86.879
1522.4490, -86.680
1522.4890, -83.524
1522.5290, -95.248
1522.5690,-210.000
1522.6090, -84.281
1522.6491, -86.611
1522.6891, -94.004
1522.7291, -82.697
1522.7691, -83.272
1522.8091, -84.912
1522.8491, -87.803
1522.8892, -84.470
1522.9292, -84.531
1522.9692, -82.103
1523.0092, -83.856
1523.0492, -82.555
1523.0892, -84.823
1523.1293, -82.617
1523.1693, -80.829
1523.2093, -82.920
1523.2493, -97.590
1523.2893, -79.444
1523.3293, -82.468
1523.3693, -83.804
1523.4094, -82.938
1523.4494, -80.294
1523.4894, -81.765
1523.5294, -81.237
1523.5694, -79.596
1523.6094, -79.089
1523.6495, -80.728
1523.6895, -81.490
1523.7295, -77.965
1523.7695, -80.126
1523.8095, -79.320
1523.8495, -79.095
1523.8896, -80.123
1523.9296, -80.508
1523.9696, -78.467
1524.0096, -80.387
1524.0496, -81.481
1524.0896, -78.247
1524.1297, -77.983
1524.1697, -78.972
1524.2097, -79.698
1524.2497, -79.386
1524.2897, -79.008
1524.3297, -78.569
1524.3697, -79.992
1524.4098, -77.577
1524.4498, -78.267
1524.4898, -80.279
1524.5298, -78.163
1524.5698, -79.235
1524.6098, -79.244
1524.6499, -81.371
1524.6899, -79.690
1524.7299, -79.856
1524.7699, -83.286
1524.8099, -79.051
1524.8499, -81.774
1524.8900, -79.719
1524.9300, -79.842
1524.9700, -84.690
1525.0100, -80.643
1525.0500, -81.182
1525.0900, -81.192
1525.1301, -80.063
1525.1701, -81.100
1525.2101, -81.049
1525.2501, -80.343
1525.2901, -78.865
1525.3301, -80.062
1525.3701, -81.656
1525.4102, -79.757
1525.4502, -79.085
1525.4902, -79.603
1525.5302, -79.979
1525.5702, -76.895
1525.6102, -78.119
1525.6503, -78.502
1525.6903, -77.327
1525.7303, -77.553
1525.7703, -77.676
1525.8103, -78.014
1525.8503, -76.488
1525.8904, -77.364
1525.9304, -77.761
1525.9704, -76.961
1526.0104, -77.511
1526.0504, -76.169
1526.0904, -78.611
1526.1305, -75.906
1526.1705, -77.523
1526.2105, -78.148
1526.2505, -76.898
1526.2905, -77.368
1526.3305, -76.958
1526.3705, -78.052
1526.4106, -77.335
1526.4506, -76.708
1526.4906, -77.294
1526.5306, -77.316
1526.5706, -77.795
1526.6106, -77.208
1526.6507, -77.941
1526.6907, -79.129
1526.7307, -77.064
1526.7707, -78.791
1526.8107, -78.984
1526.8507, -77.871
1526.8908, -78.394
1526.9308, -78.446
1526.9708, -78.821
1527.0108, -78.015
1527.0508, -78.751
1527.0908, -77.049
1527.1309, -76.401
1527.1709, -76.413
1527.2109, -76.525
1527.2509, -75.626
1527.2909, -74.858
1527.3309, -74.211
1527.3709, -73.888
1527.4110, -73.448
1527.4510, -72.368
1527.4910, -72.244
1527.5310, -71.726
1527.5710, -70.815
1527.6110, -70.728
1527.6511, -70.298
1527.6911, -69.924
1527.7311, -69.671
1527.7711, -68.879
1527.8111, -68.532
1527.8511, -68.404
1527.8912, -67.971
1527.9312, -67.622
1527.9712, -67.262
1528.0112, -66.972
1528.0512, -66.746
1528.0912, -66.338
1528.1313, -66.181
1528.1713, -65.886
1528.2113, -65.695
1528.2513, -65.520
1528.2913, -65.343
1528.3313, -65.251
1528.3713, -65.096
1528.4114, -64.903
1528.4514, -64.868
1528.4914, -64.706
1528.5314, -64.604
1528.5714, -64.515
1528.6114, -64.411
1528.6515, -64.298
1528.6915, -64.222
1528.7315, -64.104
1528.7715, -63.984
1528.8115, -63.944
1528.8515, -63.824
1528.8916, -63.762
1528.9316, -63.631
1528.9716, -63.572
1529.0116, -63.497
1529.0516, -63.425
1529.0916, -63.401
1529.1317, -63.317
1529.1717, -63.319
1529.2117, -63.318
1529.2517, -63.274
1529.2917, -63.252
1529.3317, -63.308
1529.3717, -63.324
1529.4118, -63.339
1529.4518, -63.410
1529.4918, -63.412
1529.5318, -63.484
1529.5718, -63.560
1529.6118, -63.607
1529.6519, -63.709
1529.6919, -63.773
1529.7319, -63.858
1529.7719, -63.918
1529.8119, -64.025
1529.8519, -64.087
1529.8920, -64.267
1529.9320, -64.370
1529.9720, -64.464
1530.0120, -64.651
1530.0520, -64.759
1530.0920, -64.893
1530.1321, -65.011
1530.1721, -65.126
1530.2121, -65.299
1530.2521, -65.600
1530.2921, -65.678
1530.3321, -65.922
1530.3721, -66.131
1530.4122, -66.403
1530.4522, -66.484
1530.4922, -66.728
1530.5322, -67.017
1530.5722, -67.348
1530.6122, -67.451
1530.6523, -67.704
1530.6923, -67.872
1530.7323, -68.015
1530.7723, -68.157
1530.8123, -68.280
1530.8523, -68.348
1530.8924, -68.274
1530.9324, -68.099
1530.9724, -67.846
1531.0124, -67.793
1531.0524, -67.462
1531.0924, -67.183
1531.1325, -66.868
1531.1725, -66.492
1531.2125, -66.111
1531.2525, -65.809
1531.2925, -65.421
1531.3325, -65.001
1531.3725, -64.611
1531.4126, -64.203
1531.4526, -63.832
1531.4926, -63.444
1531.5326, -63.126
1531.5726, -62.731
1531.6126, -62.403
1531.6527, -62.136
1531.6927, -61.819
1531.7327, -61.603
1531.7727, -61.368
1531.8127, -61.188
1531.8527, -61.000
1531.8928, -60.848
1531.9328, -60.670
1531.9728, -60.506
1532.0128, -60.369
1532.0528, -60.242
1532.0928, -60.142
1532.1329, -60.035
1532.1729, -59.938
1532.2129, -59.864
1532.2529, -59.811
1532.2929, -59.773
1532.3329, -59.768
1532.3729, -59.753
1532.4130, -59.739
1532.4530, -59.756
1532.4930, -59.764
1532.5330, -59.788
1532.5730, -59.800
1532.6130, -59.804
1532.6531, -59.819
1532.6931, -59.817
1532.7331, -59.818
1532.7731, -59.821
1532.8131, -59.849
1532.8531, -59.834
1532.8932, -59.844
1532.9332, -59.869
1532.9732, -59.861
1533.0132, -59.881
1533.0532, -59.898
1533.0932, -59.878
1533.1333, -59.897
1533.1733, -59.899
1533.2133, -59.881
1533.2533, -59.874
1533.2933, -59.863
1533.3333, -59.881
1533.3733, -59.886
1533.4134, -59.907
1533.4534, -59.950
1533.4934, -59.972
1533.5334, -60.036
1533.5734, -60.104
1533.6134, -60.152
1533.6535, -60.225
1533.6935, -60.330
1533.7335, -60.415
1533.7735, -60.576
1533.8135, -60.665
1533.8535, -60.798
1533.8936, -60.968
1533.9336, -61.083
1533.9736, -61.229
1534.0136, -61.364
1534.0536, -61.496
1534.0936, -61.621
1534.1337, -61.831
1534.1737, -61.957
1534.2137, -62.108
1534.2537, -62.299
1534.2937, -62.430
1534.3337, -62.694
1534.3737, -62.820
1534.4138, -63.089
1534.4538, -63.330
1534.4938, -63.515
1534.5338, -63.819
1534.5738, -64.033
1534.6138, -64.281
1534.6539, -64.569
1534.6939, -64.799
1534.7339, -65.105
1534.7739, -65.482
1534.8139, -65.638
1534.8539, -65.890
1534.8940, -66.151
1534.9340, -66.263
1534.9740, -66.345
1535.0140, -66.375
1535.0540, -66.448
1535.0940, -66.449
1535.1341, -66.269
1535.1741, -66.339
1535.2141, -66.191
1535.2541, -66.050
1535.2941, -65.956
1535.3341, -65.866
1535.3741, -65.823
1535.4142, -65.653
1535.4542, -65.621
1535.4942, -65.534
1535.5342, -65.461
1535.5742, -65.372
1535.6142, -65.432
1535.6543, -65.328
1535.6943, -65.452
1535.7343, -65.430
1535.7743, -65.467
1535.8143, -65.508
1535.8543, -65.557
1535.8944, -65.633
1535.9344, -65.710
1535.9744, -65.834
1536.0144, -65.913
1536.0544, -66.020
1536.0944, -66.097
1536.1345, -66.168
1536.1745, -66.129
1536.2145, -66.325
1536.2545, -66.168
1536.2945, -66.350
1536.3345, -66.233
1536.3745, -66.238
1536.4146, -66.182
1536.4546, -66.149
1536.4946, -66.106
1536.5346, -66.165
1536.5746, -66.103
1536.6146, -66.049
1536.6547, -65.966
1536.6947, -65.959
1536.7347, -66.051
1536.7747, -65.974
1536.8147, -65.892
1536.8547, -65.912
1536.8948, -65.931
1536.9348, -65.791
1536.9748, -66.013
1537.0148, -65.846
1537.0548, -65.930
1537.0948, -65.913
1537.1349, -65.878
1537.1749, -65.975
1537.2149, -65.871
1537.2549, -65.879
1537.2949, -65.876
1537.3349, -65.978
1537.3749, -65.862
1537.4150, -65.948
1537.4550, -65.951
1537.4950, -65.975
1537.5350, -65.932
1537.5750, -66.067
1537.6150, -66.172
1537.6551, -66.191
1537.6951, -66.315
1537.7351, -66.358
1537.7751, -66.590
1537.8151, -66.629
1537.8551, -66.851
1537.8952, -66.993
1537.9352, -67.120
1537.9752, -67.310
1538.0152, -67.478
1538.0552, -67.681
1538.0952, -67.956
1538.1353, -68.023
1538.1753, -68.389
1538.2153, -68.665
1538.2553, -68.753
1538.2953, -69.063
1538.3353, -69.411
1538.3754, -69.555
1538.4154, -69.550
1538.4554, -70.182
1538.4954, -70.249
1538.5354, -70.541
1538.5754, -70.744
1538.6154, -70.870
1538.6555, -71.498
1538.6955, -71.690
1538.7355, -72.143
1538.7755, -72.275
1538.8155, -72.880
1538.8555, -73.124
1538.8956, -73.916
1538.9356, -74.074
1538.9756, -74.621
1539.0156, -74.556
1539.0556, -75.542
1539.0956, -75.551
1539.1357, -75.885
1539.1757, -75.945
1539.2157, -75.906
1539.2557, -75.826
1539.2957, -75.489
1539.3357, -75.001
1539.3758, -75.155
1539.4158, -74.408
1539.4558, -74.080
1539.4958, -73.586
1539.5358, -73.320
1539.5758, -72.690
1539.6158, -72.383
1539.6559, -71.716
1539.6959, -71.543
1539.7359, -71.251
1539.7759, -70.993
1539.8159, -70.831
1539.8559, -70.546
1539.8960, -70.627
1539.9360, -70.156
1539.9760, -70.110
1540.0160, -69.896
1540.0560, -69.857
1540.0960, -69.777
1540.1361, -69.929
1540.1761, -69.915
1540.2161, -69.612
1540.2561, -69.653
1540.2961, -69.907
1540.3361, -69.994
1540.3762, -69.723
1540.4162, -70.122
1540.4562, -70.384
1540.4962, -70.311
1540.5362, -70.183
1540.5762, -70.619
1540.6162, -70.704
1540.6563, -70.727
1540.6963, -70.824
1540.7363, -71.393
1540.7763, -71.379
1540.8163, -71.730
1540.8563, -71.758
1540.8964, -71.768
1540.9364, -72.276
1540.9764, -72.302
1541.0164, -72.570
1541.0564, -72.495
1541.0964, -72.910
1541.1365, -72.902
1541.1765, -73.604
1541.2165, -73.101
1541.2565, -73.179
