70BCSV 	
// AQ6370B OPTICAL SPECTRUM ANALYZER //                 
25
"CTRWL",1550.000000
"SPAN", 100.000000
"START WL",1500.000000
"STOP WL",1600.000000
"WLFREQ", 0
"REFL",-58.5
"LSCL", 5.0
"RESLN",0.500
"AVG",   1
"SMPLAUTO",      0
"SMPL",       2500
"SMPLINTVL",0.0400
"HIGH1"
"MEAS"
"LSUNT",0
"NMSKH","OFF"
"RESCOR",0
"RESPARM", 9740
"FREQPARM", 9740






"[TRACE DATA]"
1500.0000,-210.000
1500.0400,-210.000
1500.0800,-210.000
1500.1200,-210.000
1500.1601,-210.000
1500.2001,-210.000
1500.2401,-210.000
1500.2801,-210.000
1500.3201,-210.000
1500.3601,-210.000
1500.4002,-210.000
1500.4402,-210.000
1500.4802,-210.000
1500.5202,-210.000
1500.5602,-210.000
1500.6002,-210.000
1500.6403,-210.000
1500.6803,-210.000
1500.7203,-210.000
1500.7603,-210.000
1500.8003,-210.000
1500.8403,-210.000
1500.8804,-210.000
1500.9204,-210.000
1500.9604,-210.000
1501.0004,-210.000
1501.0404,-210.000
1501.0804,-210.000
1501.1204,-210.000
1501.1605,-210.000
1501.2005,-210.000
1501.2405,-210.000
1501.2805,-210.000
1501.3205,-210.000
1501.3605,-210.000
1501.4006,-210.000
1501.4406,-210.000
1501.4806,-210.000
1501.5206,-210.000
1501.5606,-210.000
1501.6006,-210.000
1501.6407,-210.000
1501.6807,-210.000
1501.7207,-210.000
1501.7607,-210.000
1501.8007,-210.000
1501.8407,-210.000
1501.8808,-210.000
1501.9208,-210.000
1501.9608,-210.000
1502.0008,-210.000
1502.0408,-210.000
1502.0808,-210.000
1502.1208,-210.000
1502.1609,-210.000
1502.2009,-210.000
1502.2409,-210.000
1502.2809, -89.086
1502.3209,-210.000
1502.3609,-210.000
1502.4010,-210.000
1502.4410,-210.000
1502.4810,-210.000
1502.5210,-210.000
1502.5610,-210.000
1502.6010, -91.151
1502.6411,-210.000
1502.6811,-210.000
1502.7211,-210.000
1502.7611,-210.000
1502.8011,-210.000
1502.8411,-210.000
1502.8812,-210.000
1502.9212,-210.000
1502.9612,-210.000
1503.0012,-210.000
1503.0412,-210.000
1503.0812,-210.000
1503.1212,-210.000
1503.1613,-210.000
1503.2013,-210.000
1503.2413,-210.000
1503.2813,-210.000
1503.3213,-210.000
1503.3613,-210.000
1503.4014,-210.000
1503.4414,-210.000
1503.4814,-210.000
1503.5214,-210.000
1503.5614,-210.000
1503.6014,-210.000
1503.6415,-210.000
1503.6815,-210.000
1503.7215,-210.000
1503.7615, -86.725
1503.8015,-210.000
1503.8415,-210.000
1503.8816,-210.000
1503.9216,-210.000
1503.9616,-210.000
1504.0016,-210.000
1504.0416,-210.000
1504.0816,-210.000
1504.1216,-210.000
1504.1617,-210.000
1504.2017,-210.000
1504.2417,-210.000
1504.2817,-210.000
1504.3217,-210.000
1504.3617,-100.347
1504.4018,-210.000
1504.4418,-210.000
1504.4818,-210.000
1504.5218,-210.000
1504.5618,-210.000
1504.6018,-210.000
1504.6419,-210.000
1504.6819,-210.000
1504.7219,-210.000
1504.7619, -97.272
1504.8019,-210.000
1504.8419,-210.000
1504.8820,-210.000
1504.9220,-210.000
1504.9620,-210.000
1505.0020,-210.000
1505.0420,-210.000
1505.0820,-210.000
1505.1220,-210.000
1505.1621,-210.000
1505.2021,-210.000
1505.2421,-210.000
1505.2821,-210.000
1505.3221,-210.000
1505.3621,-210.000
1505.4022,-210.000
1505.4422,-210.000
1505.4822,-210.000
1505.5222,-210.000
1505.5622,-210.000
1505.6022,-210.000
1505.6423,-210.000
1505.6823,-210.000
1505.7223,-210.000
1505.7623,-210.000
1505.8023,-210.000
1505.8423,-210.000
1505.8824,-210.000
1505.9224,-210.000
1505.9624,-210.000
1506.0024,-210.000
1506.0424,-210.000
1506.0824,-210.000
1506.1224,-210.000
1506.1625,-210.000
1506.2025,-210.000
1506.2425,-210.000
1506.2825,-210.000
1506.3225,-210.000
1506.3625,-210.000
1506.4026,-210.000
1506.4426,-210.000
1506.4826,-210.000
1506.5226,-210.000
1506.5626,-210.000
1506.6026,-210.000
1506.6427,-210.000
1506.6827,-210.000
1506.7227,-210.000
1506.7627,-210.000
1506.8027,-210.000
1506.8427,-210.000
1506.8828,-210.000
1506.9228,-210.000
1506.9628,-210.000
1507.0028,-210.000
1507.0428,-210.000
1507.0828,-210.000
1507.1228,-210.000
1507.1629,-210.000
1507.2029,-210.000
1507.2429,-210.000
1507.2829,-210.000
1507.3229,-210.000
1507.3629,-210.000
1507.4030,-210.000
1507.4430,-210.000
1507.4830, -91.916
1507.5230,-210.000
1507.5630,-210.000
1507.6030,-210.000
1507.6431,-210.000
1507.6831,-210.000
1507.7231,-210.000
1507.7631,-210.000
1507.8031,-210.000
1507.8431,-210.000
1507.8832,-210.000
1507.9232,-210.000
1507.9632,-210.000
1508.0032,-210.000
1508.0432,-210.000
1508.0832,-210.000
1508.1232,-210.000
1508.1633,-210.000
1508.2033,-210.000
1508.2433,-210.000
1508.2833,-210.000
1508.3233, -92.031
1508.3633,-210.000
1508.4034,-210.000
1508.4434,-210.000
1508.4834,-210.000
1508.5234,-210.000
1508.5634,-210.000
1508.6034,-210.000
1508.6435,-210.000
1508.6835,-210.000
1508.7235,-210.000
1508.7635,-210.000
1508.8035,-210.000
1508.8435,-210.000
1508.8836,-210.000
1508.9236,-210.000
1508.9636,-210.000
1509.0036,-210.000
1509.0436,-210.000
1509.0836,-210.000
1509.1236,-210.000
1509.1637,-210.000
1509.2037,-210.000
1509.2437,-210.000
1509.2837,-210.000
1509.3237,-210.000
1509.3637,-210.000
1509.4038,-210.000
1509.4438,-210.000
1509.4838,-210.000
1509.5238,-210.000
1509.5638,-210.000
1509.6038,-210.000
1509.6439,-210.000
1509.6839,-210.000
1509.7239,-210.000
1509.7639,-210.000
1509.8039,-210.000
1509.8439,-210.000
1509.8840,-210.000
1509.9240,-210.000
1509.9640, -96.017
1510.0040,-210.000
1510.0440,-210.000
1510.0840,-210.000
1510.1240,-210.000
1510.1641,-210.000
1510.2041,-210.000
1510.2441,-210.000
1510.2841,-210.000
1510.3241,-210.000
1510.3641,-210.000
1510.4042,-210.000
1510.4442,-210.000
1510.4842,-210.000
1510.5242,-210.000
1510.5642,-210.000
1510.6042,-210.000
1510.6443,-210.000
1510.6843,-210.000
1510.7243,-210.000
1510.7643,-210.000
1510.8043,-210.000
1510.8443,-210.000
1510.8844,-210.000
1510.9244,-210.000
1510.9644,-210.000
1511.0044,-210.000
1511.0444,-210.000
1511.0844,-210.000
1511.1244,-210.000
1511.1645,-210.000
1511.2045,-210.000
1511.2445,-210.000
1511.2845,-210.000
1511.3245,-210.000
1511.3645,-210.000
1511.4046, -90.641
1511.4446,-210.000
1511.4846,-210.000
1511.5246,-210.000
1511.5646,-210.000
1511.6046,-210.000
1511.6447,-210.000
1511.6847,-210.000
1511.7247,-210.000
1511.7647,-210.000
1511.8047,-210.000
1511.8447,-210.000
1511.8848,-210.000
1511.9248,-210.000
1511.9648,-210.000
1512.0048,-210.000
1512.0448,-210.000
1512.0848,-210.000
1512.1248,-210.000
1512.1649,-210.000
1512.2049,-210.000
1512.2449,-210.000
1512.2849,-210.000
1512.3249,-210.000
1512.3649,-210.000
1512.4050,-210.000
1512.4450,-210.000
1512.4850,-210.000
1512.5250,-210.000
1512.5650,-210.000
1512.6050,-210.000
1512.6451,-210.000
1512.6851,-210.000
1512.7251,-210.000
1512.7651,-210.000
1512.8051,-210.000
1512.8451,-210.000
1512.8852,-210.000
1512.9252,-210.000
1512.9652,-210.000
1513.0052,-210.000
1513.0452,-210.000
1513.0852,-210.000
1513.1253,-210.000
1513.1653,-210.000
1513.2053,-210.000
1513.2453,-210.000
1513.2853,-210.000
1513.3253,-210.000
1513.3653, -90.866
1513.4054,-210.000
1513.4454,-210.000
1513.4854,-210.000
1513.5254,-210.000
1513.5654,-210.000
1513.6054,-210.000
1513.6455,-210.000
1513.6855,-210.000
1513.7255,-210.000
1513.7655,-210.000
1513.8055,-210.000
1513.8455,-210.000
1513.8856,-210.000
1513.9256,-210.000
1513.9656,-210.000
1514.0056,-210.000
1514.0456,-210.000
1514.0856,-210.000
1514.1257,-210.000
1514.1657,-210.000
1514.2057,-210.000
1514.2457,-210.000
1514.2857,-210.000
1514.3257,-210.000
1514.3657,-210.000
1514.4058,-210.000
1514.4458,-210.000
1514.4858,-210.000
1514.5258,-210.000
1514.5658,-210.000
1514.6058,-210.000
1514.6459,-210.000
1514.6859,-210.000
1514.7259,-210.000
1514.7659,-210.000
1514.8059,-210.000
1514.8459, -84.123
1514.8860,-210.000
1514.9260,-210.000
1514.9660,-210.000
1515.0060,-210.000
1515.0460,-210.000
1515.0860,-210.000
1515.1261,-210.000
1515.1661,-210.000
1515.2061,-210.000
1515.2461,-210.000
1515.2861,-210.000
1515.3261,-210.000
1515.3661,-210.000
1515.4062,-210.000
1515.4462,-210.000
1515.4862,-210.000
1515.5262,-210.000
1515.5662,-210.000
1515.6062,-210.000
1515.6463,-210.000
1515.6863,-210.000
1515.7263,-210.000
1515.7663,-210.000
1515.8063,-210.000
1515.8463,-210.000
1515.8864,-210.000
1515.9264,-210.000
1515.9664,-210.000
1516.0064,-210.000
1516.0464,-210.000
1516.0864,-210.000
1516.1265,-210.000
1516.1665,-210.000
1516.2065,-210.000
1516.2465,-210.000
1516.2865,-210.000
1516.3265,-210.000
1516.3665,-210.000
1516.4066,-210.000
1516.4466,-210.000
1516.4866,-210.000
1516.5266,-210.000
1516.5666,-210.000
1516.6066,-210.000
1516.6467,-210.000
1516.6867,-210.000
1516.7267,-210.000
1516.7667,-210.000
1516.8067,-210.000
1516.8467,-210.000
1516.8868,-210.000
1516.9268, -88.878
1516.9668,-210.000
1517.0068,-210.000
1517.0468,-210.000
1517.0868,-210.000
1517.1269,-210.000
1517.1669,-210.000
1517.2069,-210.000
1517.2469, -95.236
1517.2869,-210.000
1517.3269,-210.000
1517.3669,-210.000
1517.4070,-210.000
1517.4470,-210.000
1517.4870,-210.000
1517.5270,-210.000
1517.5670,-210.000
1517.6070,-210.000
1517.6471,-210.000
1517.6871,-210.000
1517.7271,-210.000
1517.7671,-210.000
1517.8071,-210.000
1517.8471,-210.000
1517.8872,-210.000
1517.9272,-210.000
1517.9672,-210.000
1518.0072,-210.000
1518.0472,-210.000
1518.0872,-210.000
1518.1273,-210.000
1518.1673,-210.000
1518.2073,-210.000
1518.2473,-210.000
1518.2873,-210.000
1518.3273,-210.000
1518.3673,-210.000
1518.4074,-210.000
1518.4474,-210.000
1518.4874,-210.000
1518.5274,-210.000
1518.5674,-210.000
1518.6074,-210.000
1518.6475,-210.000
1518.6875,-104.272
1518.7275,-210.000
1518.7675,-210.000
1518.8075,-210.000
1518.8475,-210.000
1518.8876,-210.000
1518.9276,-210.000
1518.9676,-210.000
1519.0076,-210.000
1519.0476,-210.000
1519.0876,-210.000
1519.1277,-210.000
1519.1677,-210.000
1519.2077, -96.704
1519.2477,-210.000
1519.2877,-210.000
1519.3277,-210.000
1519.3677,-210.000
1519.4078,-210.000
1519.4478,-210.000
1519.4878,-210.000
1519.5278,-210.000
1519.5678,-210.000
1519.6078,-210.000
1519.6479,-210.000
1519.6879,-210.000
1519.7279,-210.000
1519.7679,-210.000
1519.8079,-210.000
1519.8479,-210.000
1519.8880,-210.000
1519.9280,-210.000
1519.9680,-210.000
1520.0080,-210.000
1520.0480,-210.000
1520.0880,-210.000
1520.1281,-210.000
1520.1681,-210.000
1520.2081,-210.000
1520.2481,-210.000
1520.2881,-210.000
1520.3281,-210.000
1520.3681,-210.000
1520.4082,-210.000
1520.4482,-210.000
1520.4882,-210.000
1520.5282,-210.000
1520.5682,-210.000
1520.6082, -87.621
1520.6483,-210.000
1520.6883,-210.000
1520.7283,-210.000
1520.7683,-210.000
1520.8083,-210.000
1520.8483,-210.000
1520.8884,-210.000
1520.9284,-210.000
1520.9684,-210.000
1521.0084,-210.000
1521.0484,-210.000
1521.0884,-210.000
1521.1285,-210.000
1521.1685,-210.000
1521.2085,-210.000
1521.2485,-210.000
1521.2885,-210.000
1521.3285,-210.000
1521.3685,-210.000
1521.4086,-210.000
1521.4486, -96.861
1521.4886,-210.000
1521.5286,-210.000
1521.5686,-210.000
1521.6086,-210.000
1521.6487,-210.000
1521.6887,-210.000
1521.7287,-210.000
1521.7687,-210.000
1521.8087,-210.000
1521.8487,-210.000
1521.8888,-210.000
1521.9288,-210.000
1521.9688,-210.000
1522.0088,-210.000
1522.0488,-210.000
1522.0888,-210.000
1522.1289,-210.000
1522.1689,-210.000
1522.2089,-210.000
1522.2489, -89.486
1522.2889,-210.000
1522.3289,-210.000
1522.3689,-210.000
1522.4090, -84.848
1522.4490,-210.000
1522.4890,-104.147
1522.5290,-210.000
1522.5690,-210.000
1522.6090,-210.000
1522.6491, -86.701
1522.6891,-210.000
1522.7291,-210.000
1522.7691, -99.655
1522.8091, -89.412
1522.8491, -85.798
1522.8892, -86.962
1522.9292, -87.050
1522.9692, -84.216
1523.0092, -88.998
1523.0492,-210.000
1523.0892, -81.264
1523.1293, -87.440
1523.1693, -97.696
1523.2093,-210.000
1523.2493, -84.442
1523.2893,-210.000
1523.3293, -81.928
1523.3693,-210.000
1523.4094, -87.912
1523.4494, -85.859
1523.4894, -85.238
1523.5294, -86.294
1523.5694, -86.335
1523.6094, -89.846
1523.6495, -82.248
1523.6895,-210.000
1523.7295, -81.397
1523.7695, -90.242
1523.8095, -80.855
1523.8495,-210.000
1523.8896, -80.753
1523.9296, -86.262
1523.9696, -83.978
1524.0096,-210.000
1524.0496, -83.770
1524.0896, -83.394
1524.1297, -83.930
1524.1697, -83.904
1524.2097, -85.125
1524.2497, -82.839
1524.2897, -83.065
1524.3297, -79.374
1524.3697, -81.247
1524.4098, -80.259
1524.4498, -79.958
1524.4898, -79.935
1524.5298, -77.892
1524.5698, -79.768
1524.6098, -78.721
1524.6499, -78.355
1524.6899, -78.212
1524.7299, -77.854
1524.7699, -78.122
1524.8099, -78.428
1524.8499, -76.526
1524.8900, -77.013
1524.9300, -76.633
1524.9700, -75.595
1525.0100, -76.128
1525.0500, -76.395
1525.0900, -74.814
1525.1301, -75.509
1525.1701, -74.656
1525.2101, -74.740
1525.2501, -74.421
1525.2901, -74.800
1525.3301, -74.431
1525.3701, -73.763
1525.4102, -73.587
1525.4502, -73.758
1525.4902, -73.068
1525.5302, -73.387
1525.5702, -72.662
1525.6102, -72.465
1525.6503, -72.901
1525.6903, -72.596
1525.7303, -72.149
1525.7703, -72.091
1525.8103, -71.685
1525.8503, -71.585
1525.8904, -71.607
1525.9304, -71.350
1525.9704, -71.104
1526.0104, -70.932
1526.0504, -70.736
1526.0904, -70.234
1526.1305, -70.669
1526.1705, -70.309
1526.2105, -70.060
1526.2505, -69.993
1526.2905, -69.823
1526.3305, -69.767
1526.3705, -69.610
1526.4106, -69.565
1526.4506, -69.366
1526.4906, -69.433
1526.5306, -69.346
1526.5706, -69.414
1526.6106, -69.164
1526.6507, -69.345
1526.6907, -69.073
1526.7307, -68.981
1526.7707, -69.016
1526.8107, -69.040
1526.8507, -68.974
1526.8908, -69.113
1526.9308, -68.945
1526.9708, -69.055
1527.0108, -69.039
1527.0508, -69.136
1527.0908, -69.146
1527.1309, -68.987
1527.1709, -69.190
1527.2109, -69.143
1527.2509, -69.183
1527.2909, -69.322
1527.3309, -69.385
1527.3709, -69.299
1527.4110, -69.614
1527.4510, -69.507
1527.4910, -69.518
1527.5310, -69.756
1527.5710, -69.552
1527.6110, -69.799
1527.6511, -69.819
1527.6911, -69.579
1527.7311, -69.715
1527.7711, -69.797
1527.8111, -69.651
1527.8511, -69.734
1527.8912, -69.498
1527.9312, -69.212
1527.9712, -69.140
1528.0112, -69.038
1528.0512, -68.954
1528.0912, -68.738
1528.1313, -68.578
1528.1713, -68.323
1528.2113, -68.132
1528.2513, -67.967
1528.2913, -67.653
1528.3313, -67.609
1528.3713, -67.264
1528.4114, -67.223
1528.4514, -66.943
1528.4914, -66.796
1528.5314, -66.724
1528.5714, -66.611
1528.6114, -66.399
1528.6515, -66.319
1528.6915, -66.171
1528.7315, -66.056
1528.7715, -66.005
1528.8115, -65.862
1528.8515, -65.845
1528.8916, -65.736
1528.9316, -65.757
1528.9716, -65.685
1529.0116, -65.694
1529.0516, -65.675
1529.0916, -65.677
1529.1317, -65.790
1529.1717, -65.733
1529.2117, -65.848
1529.2517, -65.776
1529.2917, -65.927
1529.3317, -66.011
1529.3717, -65.989
1529.4118, -66.074
1529.4518, -66.171
1529.4918, -66.208
1529.5318, -66.339
1529.5718, -66.464
1529.6118, -66.540
1529.6519, -66.554
1529.6919, -66.824
1529.7319, -66.948
1529.7719, -67.117
1529.8119, -67.280
1529.8519, -67.349
1529.8920, -67.600
1529.9320, -67.675
1529.9720, -67.887
1530.0120, -67.989
1530.0520, -68.022
1530.0920, -68.099
1530.1321, -68.046
1530.1721, -67.909
1530.2121, -67.861
1530.2521, -67.613
1530.2921, -67.454
1530.3321, -67.077
1530.3721, -66.804
1530.4122, -66.384
1530.4522, -66.081
1530.4922, -65.737
1530.5322, -65.320
1530.5722, -64.921
1530.6122, -64.679
1530.6523, -64.260
1530.6923, -63.861
1530.7323, -63.591
1530.7723, -63.234
1530.8123, -62.923
1530.8523, -62.686
1530.8924, -62.401
1530.9324, -62.157
1530.9724, -61.926
1531.0124, -61.708
1531.0524, -61.451
1531.0924, -61.305
1531.1325, -61.117
1531.1725, -60.940
1531.2125, -60.783
1531.2525, -60.609
1531.2925, -60.480
1531.3325, -60.325
1531.3725, -60.180
1531.4126, -60.041
1531.4526, -59.905
1531.4926, -59.775
1531.5326, -59.650
1531.5726, -59.542
1531.6126, -59.423
1531.6527, -59.328
1531.6927, -59.200
1531.7327, -59.161
1531.7727, -59.084
1531.8127, -59.021
1531.8527, -58.983
1531.8928, -58.941
1531.9328, -58.900
1531.9728, -58.899
1532.0128, -58.891
1532.0528, -58.893
1532.0928, -58.879
1532.1329, -58.909
1532.1729, -58.920
1532.2129, -58.920
1532.2529, -58.982
1532.2929, -59.002
1532.3329, -59.057
1532.3729, -59.107
1532.4130, -59.168
1532.4530, -59.240
1532.4930, -59.307
1532.5330, -59.380
1532.5730, -59.479
1532.6130, -59.587
1532.6531, -59.682
1532.6931, -59.833
1532.7331, -59.951
1532.7731, -60.092
1532.8131, -60.252
1532.8531, -60.424
1532.8932, -60.566
1532.9332, -60.774
1532.9732, -60.897
1533.0132, -61.113
1533.0532, -61.277
1533.0932, -61.460
1533.1333, -61.668
1533.1733, -61.849
1533.2133, -62.084
1533.2533, -62.282
1533.2933, -62.512
1533.3333, -62.768
1533.3733, -62.932
1533.4134, -63.213
1533.4534, -63.395
1533.4934, -63.634
1533.5334, -63.873
1533.5734, -64.163
1533.6134, -64.451
1533.6535, -64.782
1533.6935, -64.949
1533.7335, -65.320
1533.7735, -65.598
1533.8135, -65.978
1533.8535, -66.337
1533.8936, -66.571
1533.9336, -67.024
1533.9736, -67.231
1534.0136, -67.543
1534.0536, -67.934
1534.0936, -68.110
1534.1337, -68.443
1534.1737, -68.730
1534.2137, -68.743
1534.2537, -69.060
1534.2937, -68.992
1534.3337, -69.008
1534.3737, -69.169
1534.4138, -69.118
1534.4538, -69.076
1534.4938, -68.842
1534.5338, -68.643
1534.5738, -68.528
1534.6138, -68.426
1534.6539, -68.118
1534.6939, -68.131
1534.7339, -67.702
1534.7739, -67.589
1534.8139, -67.356
1534.8539, -67.128
1534.8940, -66.829
1534.9340, -66.724
1534.9740, -66.442
1535.0140, -66.174
1535.0540, -65.965
1535.0940, -65.711
1535.1341, -65.579
1535.1741, -65.367
1535.2141, -65.101
1535.2541, -65.030
1535.2941, -64.846
1535.3341, -64.687
1535.3741, -64.634
1535.4142, -64.475
1535.4542, -64.513
1535.4942, -64.410
1535.5342, -64.404
1535.5742, -64.352
1535.6142, -64.402
1535.6543, -64.444
1535.6943, -64.433
1535.7343, -64.441
1535.7743, -64.504
1535.8143, -64.504
1535.8543, -64.596
1535.8944, -64.598
1535.9344, -64.695
1535.9744, -64.790
1536.0144, -64.800
1536.0544, -64.888
1536.0944, -65.047
1536.1345, -65.112
1536.1745, -65.278
1536.2145, -65.408
1536.2545, -65.457
1536.2945, -65.668
1536.3345, -65.770
1536.3745, -65.989
1536.4146, -66.122
1536.4546, -66.272
1536.4946, -66.492
1536.5346, -66.672
1536.5746, -66.847
1536.6146, -67.034
1536.6547, -67.242
1536.6947, -67.366
1536.7347, -67.517
1536.7747, -67.628
1536.8147, -67.867
1536.8547, -68.006
1536.8948, -67.971
1536.9348, -67.999
1536.9748, -67.999
1537.0148, -68.224
1537.0548, -68.210
1537.0948, -68.477
1537.1349, -68.249
1537.1749, -68.390
1537.2149, -68.393
1537.2549, -68.550
1537.2949, -68.575
1537.3349, -68.403
1537.3749, -68.663
1537.4150, -68.520
1537.4550, -68.745
1537.4950, -68.655
1537.5350, -68.998
1537.5750, -68.862
1537.6150, -69.126
1537.6551, -69.212
1537.6951, -69.338
1537.7351, -69.632
1537.7751, -69.680
1537.8151, -69.937
1537.8551, -70.263
1537.8952, -70.045
1537.9352, -70.719
1537.9752, -70.869
1538.0152, -71.232
1538.0552, -71.301
1538.0952, -71.489
1538.1353, -71.780
1538.1753, -71.914
1538.2153, -72.204
1538.2553, -72.818
1538.2953, -72.771
1538.3353, -72.475
1538.3754, -73.412
1538.4154, -72.793
1538.4554, -73.175
1538.4954, -72.922
1538.5354, -72.793
1538.5754, -72.340
1538.6154, -72.570
1538.6555, -72.074
1538.6955, -71.961
1538.7355, -71.774
1538.7755, -71.198
1538.8155, -71.061
1538.8555, -70.732
1538.8956, -70.456
1538.9356, -70.161
1538.9756, -69.819
1539.0156, -69.533
1539.0556, -69.157
1539.0956, -69.120
1539.1357, -68.698
1539.1757, -68.490
1539.2157, -68.251
1539.2557, -68.059
1539.2957, -67.863
1539.3357, -67.738
1539.3758, -67.504
1539.4158, -67.263
1539.4558, -67.105
1539.4958, -67.066
1539.5358, -66.769
1539.5758, -66.761
1539.6158, -66.619
1539.6559, -66.502
1539.6959, -66.400
1539.7359, -66.360
1539.7759, -66.300
1539.8159, -66.274
1539.8559, -66.177
1539.8960, -66.180
1539.9360, -66.164
1539.9760, -66.085
1540.0160, -66.122
1540.0560, -66.128
1540.0960, -66.080
1540.1361, -66.179
1540.1761, -66.126
1540.2161, -66.203
1540.2561, -66.277
1540.2961, -66.276
1540.3361, -66.369
1540.3762, -66.286
1540.4162, -66.448
1540.4562, -66.410
1540.4962, -66.462
1540.5362, -66.457
1540.5762, -66.477
1540.6162, -66.407
1540.6563, -66.375
1540.6963, -66.376
1540.7363, -66.372
1540.7763, -66.340
1540.8163, -66.290
1540.8563, -66.298
1540.8964, -66.247
1540.9364, -66.241
1540.9764, -66.251
1541.0164, -66.277
1541.0564, -66.294
1541.0964, -66.366
1541.1365, -66.325
1541.1765, -66.446
1541.2165, -66.468
1541.2565, -66.499
